70_110_wo_Pol_at_750.00nm_cut_at_1179.00Y_01.dat
03.07.2023
11:10:12
cut middle at Y: 1179.00
top cursor: 1231 down cursor: 1127 mean of: 104 lines , 2560 datapoints
wavelength(nm)	intensity[arb. units]
585.996	23588.875
586.124	23244.702
586.252	23194.808
586.380	23247.615
586.508	23328.971
586.637	23441.683
586.765	23445.663
586.893	23510.010
587.021	23555.529
587.149	23598.260
587.277	23716.875
587.405	23677.490
587.533	23800.788
587.662	23819.596
587.790	23822.577
587.918	23797.587
588.046	23796.096
588.174	23894.750
588.302	23930.558
588.430	23930.606
588.558	23943.510
588.687	23966.202
588.815	23958.154
588.943	23957.010
589.071	23962.904
589.199	24014.288
589.327	23991.923
589.455	24037.837
589.583	23978.212
589.712	24024.096
589.840	23953.154
589.968	23986.067
590.096	24025.779
590.224	24078.202
590.352	24148.644
590.480	24032.913
590.608	24014.096
590.737	24050.308
590.865	24099.885
590.993	23996.702
591.121	24036.519
591.249	24055.817
591.377	24059.558
591.505	24134.260
591.633	24110.990
591.762	24111.548
591.890	24131.654
592.018	24230.798
592.146	24146.221
592.274	24167.712
592.402	24176.615
592.530	24425.173
592.658	24300.567
592.787	24338.788
592.915	24411.760
593.043	24355.808
593.171	24400.346
593.299	24371.135
593.427	24409.894
593.555	24472.981
593.683	24542.462
593.812	24494.356
593.940	24590.010
594.068	24593.452
594.196	24654.183
594.324	24739.731
594.452	24955.538
594.580	24856.500
594.708	24997.442
594.837	24991.346
594.965	25115.788
595.093	25115.327
595.221	25242.856
595.349	25220.058
595.477	25265.462
595.605	25356.577
595.733	25403.663
595.862	25441.827
595.990	25396.279
596.118	25498.683
596.246	25608.308
596.374	25543.904
596.502	25636.712
596.630	25657.808
596.758	25666.644
596.887	25775.067
597.015	25745.010
597.143	25793.817
597.271	25798.067
597.399	25971.481
597.527	25873.433
597.655	25930.096
597.783	25949.952
597.912	25928.163
598.040	25990.317
598.168	25973.654
598.296	25895.481
598.424	26095.356
598.552	25937.875
598.680	25992.673
598.808	26095.952
598.937	26022.981
599.065	26005.106
599.193	26081.462
599.321	26067.288
599.449	25996.260
599.577	25988.365
599.705	25993.923
599.833	25977.769
599.962	25935.663
600.090	25981.962
600.218	25927.894
600.346	25961.673
600.474	25972.692
600.602	25985.692
600.730	26014.462
600.858	26057.865
600.987	26152.471
601.115	25982.500
601.243	26108.712
601.371	26184.019
601.499	26145.702
601.627	26237.279
601.755	26247.702
601.883	26237.913
602.012	26204.981
602.140	26262.490
602.268	26303.933
602.396	26424.048
602.524	26477.346
602.652	26606.923
602.780	26597.173
602.908	26655.558
603.037	26747.154
603.165	26803.808
603.293	26871.106
603.421	26947.952
603.549	26994.433
603.677	27062.587
603.805	27144.548
603.933	27266.673
604.062	27420.933
604.190	27552.837
604.318	27522.202
604.446	27566.683
604.574	27727.904
604.702	27721.260
604.830	27816.952
604.958	27901.394
605.087	28013.106
605.215	28158.702
605.343	28260.452
605.471	28319.048
605.599	28345.135
605.727	28544.981
605.855	28627.212
605.983	28654.269
606.112	28705.000
606.240	28762.010
606.368	28803.010
606.496	28873.856
606.624	28962.288
606.752	28952.731
606.880	29062.577
607.008	29072.577
607.137	29136.942
607.265	29253.058
607.393	29223.481
607.521	29314.712
607.649	29316.577
607.777	29261.192
607.905	29301.923
608.033	29324.654
608.162	29298.663
608.290	29320.740
608.418	29462.596
608.546	29435.471
608.674	29492.971
608.802	29375.269
608.930	29420.058
609.058	29418.702
609.187	29446.683
609.315	29434.865
609.443	29374.750
609.571	29501.981
609.699	29394.346
609.827	29435.817
609.955	29411.654
610.083	29384.096
610.212	29374.000
610.340	29302.433
610.468	29340.990
610.596	29344.144
610.724	29356.865
610.852	29393.538
610.980	29388.346
611.108	29396.587
611.237	29432.885
611.365	29428.183
611.493	29433.385
611.621	29433.635
611.749	29453.010
611.877	29500.788
612.005	29557.779
612.133	29586.038
612.262	29602.077
612.390	29701.808
612.518	29749.644
612.646	29751.029
612.774	29873.577
612.902	29870.337
613.030	29963.865
613.158	29875.971
613.287	29990.327
613.415	29968.875
613.543	30063.221
613.671	30093.154
613.799	30171.865
613.927	30229.163
614.055	30383.404
614.183	30378.798
614.312	30405.423
614.440	30633.500
614.568	30548.163
614.696	30712.038
614.824	30782.808
614.952	30840.250
615.080	30900.144
615.208	31029.837
615.337	31107.317
615.465	31088.904
615.593	31277.962
615.721	31200.817
615.849	31411.788
615.977	31450.740
616.105	31444.894
616.233	31600.635
616.362	31719.481
616.490	31732.606
616.618	31853.865
616.746	32017.721
616.874	31992.125
617.002	32054.567
617.130	32083.644
617.258	32145.971
617.387	32299.837
617.515	32267.971
617.643	32270.365
617.771	32343.173
617.899	32393.942
618.027	32486.615
618.155	32528.048
618.283	32523.029
618.412	32674.913
618.540	32752.442
618.668	32722.202
618.796	32791.923
618.924	32732.817
619.052	32779.712
619.180	32790.981
619.308	32789.231
619.437	32814.212
619.565	32796.740
619.693	32851.462
619.821	32883.106
619.949	32860.019
620.077	32939.875
620.205	33023.731
620.333	33038.894
620.462	33017.702
620.590	33029.846
620.718	33127.279
620.846	33119.971
620.974	33118.538
621.102	33172.894
621.230	33106.019
621.358	33291.106
621.487	33173.683
621.615	33211.240
621.743	33135.538
621.871	33225.385
621.999	33174.183
622.127	33211.010
622.255	33158.010
622.383	33147.038
622.512	33184.115
622.640	33164.962
622.768	33283.673
622.896	33281.587
623.024	33297.654
623.152	33319.510
623.280	33377.837
623.408	33321.173
623.537	33393.298
623.665	33354.010
623.793	33410.625
623.921	33387.404
624.049	33457.067
624.177	33424.625
624.305	33414.606
624.433	33459.067
624.562	33444.885
624.690	33538.731
624.818	33368.750
624.946	33391.404
625.074	33427.625
625.202	33440.356
625.330	33463.298
625.458	33569.125
625.587	33514.010
625.715	33630.356
625.843	33517.635
625.971	33617.548
626.099	33637.423
626.227	33711.269
626.355	33651.202
626.483	33714.260
626.612	33734.885
626.740	33823.010
626.868	33853.192
626.996	33881.731
627.124	33793.933
627.252	33851.567
627.380	33934.596
627.508	33916.913
627.637	33980.923
627.765	34150.106
627.893	34116.875
628.021	34139.096
628.149	34120.135
628.277	34216.154
628.405	34248.981
628.533	34237.596
628.662	34274.250
628.790	34462.163
628.918	34407.827
629.046	34615.644
629.174	34516.375
629.302	34546.885
629.430	34613.904
629.558	34725.173
629.687	34714.577
629.815	34830.529
629.943	34986.250
630.071	34971.615
630.199	35023.067
630.327	35126.962
630.455	35131.558
630.583	35185.644
630.712	35238.760
630.840	35306.625
630.968	35333.779
631.096	35455.721
631.224	35476.942
631.352	35639.529
631.480	35606.038
631.608	35830.577
631.737	35636.587
631.865	35792.048
631.993	35857.067
632.121	36004.990
632.249	35934.096
632.377	35912.923
632.505	36014.365
632.633	36163.635
632.762	36020.519
632.890	36099.692
633.018	36038.596
633.146	36137.663
633.274	36071.202
633.402	36190.538
633.530	36192.769
633.658	36168.452
633.787	36220.346
633.915	36249.202
634.043	36293.375
634.171	36316.971
634.299	36318.529
634.427	36300.798
634.555	36509.452
634.683	36326.404
634.812	36303.750
634.940	36294.971
635.068	36287.240
635.196	36251.029
635.324	36306.894
635.452	36245.538
635.580	36347.837
635.708	36246.000
635.837	36240.423
635.965	36213.067
636.093	36144.885
636.221	36055.423
636.349	36036.548
636.477	36031.087
636.605	36067.346
636.733	36053.298
636.862	35956.240
636.990	35926.856
637.118	35883.548
637.246	35840.019
637.374	35939.337
637.502	35717.365
637.630	35718.606
637.758	35705.212
637.887	35610.048
638.015	35804.462
638.143	35593.010
638.271	35515.827
638.399	35533.577
638.527	35509.058
638.655	35450.933
638.783	35462.038
638.912	35491.288
639.040	35334.837
639.168	35329.173
639.296	35367.029
639.424	35335.260
639.552	35267.913
639.680	35301.808
639.808	35244.548
639.937	35212.817
640.065	35236.423
640.193	35245.173
640.321	35343.856
640.449	35295.875
640.577	35282.644
640.705	35288.327
640.833	35260.269
640.962	35346.760
641.090	35253.942
641.218	35230.856
641.346	35369.923
641.474	35327.990
641.602	35357.923
641.730	35336.250
641.858	35355.663
641.987	35283.875
642.115	35545.375
642.243	35385.904
642.371	35540.260
642.499	35380.808
642.627	35431.981
642.755	35493.933
642.883	35475.846
643.012	35498.413
643.140	35547.135
643.268	35539.712
643.396	35543.029
643.524	35575.779
643.652	35680.058
643.780	35618.587
643.908	35613.856
644.037	35767.135
644.165	35745.385
644.293	35839.923
644.421	35679.404
644.549	35737.750
644.677	35767.692
644.805	35733.096
644.933	35748.817
645.062	35861.202
645.190	35975.837
645.318	35854.308
645.446	35806.067
645.574	35910.865
645.702	35801.990
645.830	35816.808
645.958	35836.048
646.087	35839.404
646.215	35772.529
646.343	35841.740
646.471	35994.019
646.599	35875.279
646.727	35830.673
646.855	35811.144
646.983	35768.962
647.112	35875.375
647.240	35840.471
647.368	35830.337
647.496	35834.913
647.624	35781.654
647.752	35797.692
647.880	35799.250
648.008	35788.346
648.137	35784.000
648.265	35746.942
648.393	35805.202
648.521	35695.952
648.649	35865.413
648.777	35699.779
648.905	35611.933
649.033	35666.500
649.162	35529.288
649.290	35431.663
649.418	35482.212
649.546	35569.577
649.674	35493.212
649.802	35399.375
649.930	35240.577
650.058	35230.644
650.187	35269.462
650.315	35180.702
650.443	35173.048
650.571	35039.760
650.699	35026.221
650.827	34993.933
650.955	34919.240
651.083	34912.779
651.212	34802.298
651.340	34803.779
651.468	34783.981
651.596	34742.558
651.724	34756.365
651.852	34677.269
651.980	34627.981
652.108	34488.240
652.237	34552.548
652.365	34408.125
652.493	34448.808
652.621	34331.365
652.749	34349.260
652.877	34335.452
653.005	34318.404
653.133	34252.942
653.262	34163.356
653.390	34033.471
653.518	34197.654
653.646	33999.183
653.774	33942.952
653.902	33977.192
654.030	33928.500
654.158	33852.279
654.287	33857.712
654.415	33759.750
654.543	33810.654
654.671	33709.538
654.799	33702.846
654.927	33607.923
655.055	33591.462
655.183	33546.779
655.312	33505.308
655.440	33479.865
655.568	33433.490
655.696	33404.077
655.824	33380.000
655.952	33338.837
656.080	33162.106
656.208	33202.106
656.337	33210.500
656.465	33370.865
656.593	33179.163
656.721	33091.673
656.849	33084.375
656.977	32842.587
657.105	32890.712
657.233	32897.788
657.362	32888.942
657.490	32831.279
657.618	32795.827
657.746	32728.971
657.874	32523.433
658.002	32445.817
658.130	32400.260
658.258	32331.740
658.387	32276.212
658.515	32230.577
658.643	32207.269
658.771	32284.702
658.899	32139.971
659.027	32119.577
659.155	32087.625
659.283	31919.904
659.412	31929.260
659.540	31928.433
659.668	31905.279
659.796	31942.952
659.924	31948.173
660.052	31987.721
660.180	31858.577
660.308	31940.510
660.437	31889.760
660.565	31744.798
660.693	31561.375
660.821	31691.317
660.949	31469.115
661.077	31482.625
661.205	31644.202
661.333	31438.529
661.462	31333.740
661.590	31351.971
661.718	31298.933
661.846	31297.885
661.974	31238.933
662.102	31127.471
662.230	31077.740
662.358	30998.192
662.487	31025.404
662.615	30931.298
662.743	30950.885
662.871	30930.500
662.999	30868.087
663.127	30763.452
663.255	30660.010
663.383	30787.269
663.512	30617.096
663.640	30588.317
663.768	30633.913
663.896	30539.019
664.024	30524.712
664.152	30449.760
664.280	30513.087
664.408	30377.683
664.537	30356.260
664.665	30320.279
664.793	30270.077
664.921	30240.077
665.049	30270.183
665.177	30158.529
665.305	30158.529
665.433	30163.452
665.562	30221.240
665.690	30042.183
665.818	30188.058
665.946	29954.740
666.074	29924.952
666.202	29907.173
666.330	29834.942
666.458	29988.173
666.587	29763.337
666.715	29762.106
666.843	29649.231
666.971	29643.077
667.099	29643.404
667.227	29643.298
667.355	29609.606
667.483	29509.538
667.612	29555.010
667.740	29472.356
667.868	29402.798
667.996	29402.837
668.124	29391.942
668.252	29442.663
668.380	29238.731
668.508	29316.894
668.637	29140.442
668.765	29204.135
668.893	29038.538
669.021	28983.125
669.149	29036.183
669.277	28880.817
669.405	28995.942
669.533	28907.798
669.662	28832.048
669.790	28776.712
669.918	28747.740
670.046	28810.423
670.174	28617.596
670.302	28511.644
670.430	28484.433
670.558	28540.231
670.687	28537.558
670.815	28297.644
670.943	28300.413
671.071	28201.817
671.199	28101.269
671.327	28119.375
671.455	28088.135
671.583	28064.894
671.712	27903.837
671.840	27970.490
671.968	27994.413
672.096	27943.212
672.224	27709.452
672.352	27669.048
672.480	27523.212
672.608	27539.038
672.737	27418.865
672.865	27385.231
672.993	27303.067
673.121	27247.298
673.249	27184.202
673.377	27131.760
673.505	27031.385
673.633	27024.154
673.762	26923.510
673.890	26867.183
674.018	26881.288
674.146	26722.337
674.274	26669.990
674.402	26672.817
674.530	26552.587
674.658	26486.885
674.787	26395.125
674.915	26424.856
675.043	26275.423
675.171	26196.394
675.299	26096.846
675.427	26016.471
675.555	26035.433
675.683	25932.500
675.812	25839.413
675.940	25753.433
676.068	25645.663
676.196	25660.971
676.324	25530.654
676.452	25438.096
676.580	25364.365
676.708	25336.750
676.837	25229.692
676.965	25274.154
677.093	25322.173
677.221	25087.769
677.349	24948.115
677.477	24966.673
677.605	24825.394
677.733	24756.452
677.862	24681.875
677.990	24686.481
678.118	24624.500
678.246	24564.750
678.374	24528.865
678.502	24344.990
678.630	24256.971
678.758	24241.279
678.887	24312.250
679.015	24029.212
679.143	24000.356
679.271	23959.442
679.399	23904.962
679.527	23926.356
679.655	23854.010
679.783	23723.298
679.912	23668.567
680.040	23759.154
680.168	23543.019
680.296	23495.462
680.424	23450.346
680.552	23346.173
680.680	23313.894
680.808	23216.308
680.937	23200.913
681.065	23209.058
681.193	23081.433
681.321	22974.240
681.449	22993.337
681.577	22934.442
681.705	22914.481
681.833	22832.462
681.962	22798.587
682.090	22765.058
682.218	22644.596
682.346	22672.173
682.474	22535.029
682.602	22494.663
682.730	22530.202
682.858	22431.500
682.987	22370.558
683.115	22355.048
683.243	22292.212
683.371	22248.750
683.499	22192.827
683.627	22218.587
683.755	22086.212
683.883	22080.587
684.012	22039.673
684.140	22010.077
684.268	21952.962
684.396	21970.817
684.524	21866.750
684.652	21841.587
684.780	21825.952
684.908	21739.010
685.037	21785.952
685.165	21665.212
685.293	21703.971
685.421	21650.346
685.549	21599.692
685.677	21511.913
685.805	21484.990
685.933	21400.394
686.062	21421.260
686.190	21347.712
686.318	21269.231
686.446	21229.077
686.574	21171.721
686.702	21180.750
686.830	21103.846
686.958	21135.654
687.087	20998.683
687.215	20965.913
687.343	20944.144
687.471	21048.394
687.599	20770.875
687.727	20788.269
687.855	20704.913
687.983	20639.750
688.112	20688.750
688.240	20610.058
688.368	20585.462
688.496	20483.269
688.624	20395.144
688.752	20543.183
688.880	20324.577
689.008	20284.490
689.137	20262.231
689.265	20213.817
689.393	20139.423
689.521	20111.692
689.649	20180.567
689.777	20043.702
689.905	20062.308
690.033	19901.135
690.162	19856.471
690.290	19897.337
690.418	19752.962
690.546	19763.654
690.674	19697.413
690.802	19675.644
690.930	19611.019
691.058	19582.625
691.187	19481.817
691.315	19407.769
691.443	19398.269
691.571	19357.817
691.699	19281.558
691.827	19196.577
691.955	19161.808
692.083	19152.558
692.212	19093.452
692.340	19028.385
692.468	19066.231
692.596	18967.894
692.724	18866.692
692.852	18865.423
692.980	18809.221
693.108	18813.125
693.237	18685.135
693.365	18631.471
693.493	18574.298
693.621	18502.779
693.749	18436.962
693.877	18435.875
694.005	18272.337
694.133	18214.385
694.262	18242.365
694.390	18110.375
694.518	18048.048
694.646	18054.606
694.774	17958.981
694.902	17896.740
695.030	17874.163
695.158	17751.760
695.287	17695.413
695.415	17692.250
695.543	17628.760
695.671	17532.606
695.799	17625.529
695.927	17469.279
696.055	17446.952
696.183	17309.817
696.312	17474.913
696.440	17294.808
696.568	17285.567
696.696	17100.356
696.824	17014.798
696.952	16971.423
697.080	16959.683
697.208	16862.750
697.337	16823.317
697.465	16759.548
697.593	16688.702
697.721	16748.942
697.849	16603.673
697.977	16627.760
698.105	16576.683
698.233	16507.856
698.362	16404.837
698.490	16490.413
698.618	16300.260
698.746	16231.471
698.874	16225.721
699.002	16177.337
699.130	16136.212
699.258	16017.933
699.387	15982.769
699.515	15972.606
699.643	15963.654
699.771	15981.567
699.899	15794.481
700.027	15728.663
700.155	15755.510
700.283	15608.221
700.412	15608.538
700.540	15619.423
700.668	15573.923
700.796	15454.375
700.924	15408.452
701.052	15394.240
701.180	15349.010
701.308	15241.433
701.437	15201.558
701.565	15184.173
701.693	15168.423
701.821	15287.673
701.949	15011.731
702.077	15003.471
702.205	15036.846
702.333	14886.615
702.462	14810.279
702.590	14802.962
702.718	14704.577
702.846	14852.096
702.974	14632.125
703.102	14569.596
703.230	14576.962
703.358	14471.202
703.487	14450.125
703.615	14370.221
703.743	14328.817
703.871	14278.942
703.999	14235.683
704.127	14149.385
704.255	14086.750
704.383	14111.635
704.512	14093.298
704.640	14046.000
704.768	14018.087
704.896	13844.269
705.024	13803.394
705.152	13778.827
705.280	13764.096
705.408	13621.067
705.537	13550.692
705.665	13574.952
705.793	13518.115
705.921	13476.606
706.049	13371.154
706.177	13369.577
706.305	13306.846
706.433	13278.827
706.562	13238.538
706.690	13195.221
706.818	13137.731
706.946	13010.250
707.074	12997.048
707.202	12922.231
707.330	12908.298
707.458	12855.683
707.587	12795.077
707.715	12782.125
707.843	12763.702
707.971	12725.019
708.099	12627.692
708.227	12561.615
708.355	12516.279
708.483	12473.433
708.612	12463.000
708.740	12382.308
708.868	12347.481
708.996	12381.442
709.124	12286.548
709.252	12247.837
709.380	12227.875
709.508	12166.846
709.637	12163.308
709.765	12081.721
709.893	12101.385
710.021	11996.192
710.149	12043.904
710.277	11884.000
710.405	11887.683
710.533	11848.183
710.662	11802.500
710.790	11896.779
710.918	11719.769
711.046	11676.692
711.174	11672.337
711.302	11682.087
711.430	11599.856
711.558	11573.885
711.687	11542.038
711.815	11473.577
711.943	11398.279
712.071	11360.317
712.199	11417.750
712.327	11390.279
712.455	11272.144
712.583	11438.731
712.712	11276.808
712.840	11267.692
712.968	11157.875
713.096	11089.923
713.224	11103.827
713.352	11053.846
713.480	11003.654
713.608	10945.731
713.737	10923.827
713.865	10934.106
713.993	10872.654
714.121	10873.933
714.249	10774.721
714.377	10756.615
714.505	10724.779
714.633	10719.385
714.762	10639.019
714.890	10638.933
715.018	10584.288
715.146	10598.163
715.274	10507.308
715.402	10512.279
715.530	10475.096
715.658	10491.692
715.787	10428.298
715.915	10485.163
716.043	10366.269
716.171	10476.308
716.299	10276.865
716.427	10316.587
716.555	10223.202
716.683	10197.788
716.812	10156.000
716.940	10133.288
717.068	10048.471
717.196	10235.240
717.324	10067.269
717.452	9999.231
717.580	10020.135
717.708	9903.721
717.837	9917.731
717.965	9911.404
718.093	9851.471
718.221	9835.163
718.349	9875.529
718.477	9757.212
718.605	9825.673
718.733	9722.663
718.862	9744.404
718.990	9618.202
719.118	9661.481
719.246	9574.750
719.374	9528.740
