90_90_90_Pol_at_750.00nm_cut_at_1179.00Y_01.dat
03.07.2023
11:23:00
cut middle at Y: 1179.00
top cursor: 1231 down cursor: 1127 mean of: 104 lines , 2560 datapoints
wavelength(nm)	intensity[arb. units]
585.996	9329.279
586.124	9134.788
586.252	9103.308
586.380	9157.942
586.508	9169.087
586.637	9227.654
586.765	9205.144
586.893	9216.817
587.021	9261.817
587.149	9267.606
587.277	9278.135
587.405	9290.913
587.533	9345.673
587.662	9381.981
587.790	9343.077
587.918	9333.798
588.046	9319.471
588.174	9352.548
588.302	9345.308
588.430	9336.202
588.558	9352.125
588.687	9354.894
588.815	9362.317
588.943	9372.481
589.071	9353.077
589.199	9337.010
589.327	9373.490
589.455	9428.394
589.583	9364.538
589.712	9337.577
589.840	9343.481
589.968	9344.394
590.096	9374.942
590.224	9351.279
590.352	9409.981
590.480	9339.635
590.608	9356.577
590.737	9379.087
590.865	9455.106
590.993	9314.981
591.121	9375.663
591.249	9353.933
591.377	9347.029
591.505	9451.942
591.633	9366.067
591.762	9353.154
591.890	9370.913
592.018	9486.529
592.146	9362.029
592.274	9374.769
592.402	9363.125
592.530	9532.308
592.658	9462.644
592.787	9436.644
592.915	9488.490
593.043	9392.077
593.171	9435.577
593.299	9416.683
593.427	9448.288
593.555	9455.654
593.683	9457.096
593.812	9436.856
593.940	9459.298
594.068	9488.231
594.196	9466.635
594.324	9518.596
594.452	9703.894
594.580	9566.769
594.708	9597.029
594.837	9583.837
594.965	9662.894
595.093	9576.394
595.221	9663.769
595.349	9677.000
595.477	9665.625
595.605	9713.471
595.733	9718.481
595.862	9741.913
595.990	9750.365
596.118	9788.587
596.246	9879.683
596.374	9785.885
596.502	9810.308
596.630	9804.779
596.758	9777.577
596.887	9827.337
597.015	9800.423
597.143	9818.798
597.271	9821.375
597.399	9862.231
597.527	9858.712
597.655	9851.942
597.783	9862.183
597.912	9860.202
598.040	9878.596
598.168	9841.077
598.296	9824.606
598.424	10006.385
598.552	9804.163
598.680	9842.663
598.808	9900.596
598.937	9854.442
599.065	9852.346
599.193	9914.577
599.321	9885.913
599.449	9860.721
599.577	9835.048
599.705	9863.452
599.833	9820.048
599.962	9842.817
600.090	9847.740
600.218	9825.346
600.346	9806.673
600.474	9789.221
600.602	9792.952
600.730	9778.962
600.858	9791.519
600.987	9839.750
601.115	9808.971
601.243	9899.529
601.371	9890.635
601.499	9879.135
601.627	9895.596
601.755	9868.019
601.883	9915.365
602.012	9812.029
602.140	9918.942
602.268	9892.615
602.396	9990.529
602.524	9891.154
602.652	9992.481
602.780	9983.481
602.908	9961.865
603.037	10060.029
603.165	10045.115
603.293	10060.202
603.421	10073.250
603.549	10095.558
603.677	10120.942
603.805	10133.404
603.933	10139.202
604.062	10234.327
604.190	10290.240
604.318	10278.990
604.446	10237.962
604.574	10350.288
604.702	10341.721
604.830	10338.750
604.958	10377.904
605.087	10420.750
605.215	10490.837
605.343	10576.913
605.471	10518.087
605.599	10529.865
605.727	10628.221
605.855	10626.231
605.983	10660.654
606.112	10679.183
606.240	10670.577
606.368	10670.654
606.496	10676.837
606.624	10789.154
606.752	10702.327
606.880	10788.548
607.008	10763.538
607.137	10737.250
607.265	10878.375
607.393	10812.923
607.521	10889.010
607.649	10844.558
607.777	10833.529
607.905	10850.952
608.033	10795.808
608.162	10844.817
608.290	10827.798
608.418	10910.933
608.546	10902.250
608.674	10900.663
608.802	10841.462
608.930	10835.471
609.058	10801.644
609.187	10849.625
609.315	10792.183
609.443	10756.154
609.571	10909.846
609.699	10804.606
609.827	10844.692
609.955	10807.452
610.083	10753.923
610.212	10750.029
610.340	10730.442
610.468	10739.625
610.596	10771.731
610.724	10678.740
610.852	10753.788
610.980	10714.577
611.108	10704.587
611.237	10699.394
611.365	10719.981
611.493	10676.058
611.621	10709.231
611.749	10740.077
611.877	10752.894
612.005	10731.788
612.133	10775.231
612.262	10764.615
612.390	10807.048
612.518	10819.615
612.646	10743.163
612.774	10792.452
612.902	10802.923
613.030	10786.346
613.158	10794.904
613.287	10875.548
613.415	10773.990
613.543	10847.173
613.671	10843.894
613.799	10872.692
613.927	10878.038
614.055	10924.923
614.183	10922.721
614.312	10903.779
614.440	11062.827
614.568	11004.519
614.696	11016.240
614.824	11005.962
614.952	11072.885
615.080	11044.413
615.208	11102.058
615.337	11181.019
615.465	11089.740
615.593	11199.192
615.721	11167.981
615.849	11259.683
615.977	11241.971
616.105	11262.846
616.233	11279.769
616.362	11302.096
616.490	11320.673
616.618	11357.048
616.746	11462.856
616.874	11417.817
617.002	11431.317
617.130	11425.981
617.258	11405.529
617.387	11431.327
617.515	11438.606
617.643	11437.308
617.771	11580.135
617.899	11491.519
618.027	11542.115
618.155	11591.913
618.283	11571.298
618.412	11593.125
618.540	11631.885
618.668	11591.721
618.796	11607.596
618.924	11546.240
619.052	11607.644
619.180	11589.490
619.308	11584.202
619.437	11586.423
619.565	11593.394
619.693	11547.615
619.821	11643.163
619.949	11552.077
620.077	11603.019
620.205	11638.010
620.333	11653.394
620.462	11616.212
620.590	11635.615
620.718	11645.423
620.846	11683.548
620.974	11668.442
621.102	11702.202
621.230	11653.885
621.358	11802.769
621.487	11644.125
621.615	11684.635
621.743	11576.625
621.871	11685.885
621.999	11613.010
622.127	11611.596
622.255	11582.327
622.383	11600.077
622.512	11621.346
622.640	11603.154
622.768	11648.231
622.896	11674.192
623.024	11643.308
623.152	11627.683
623.280	11704.904
623.408	11609.269
623.537	11668.596
623.665	11620.923
623.793	11666.394
623.921	11660.923
624.049	11663.308
624.177	11615.288
624.305	11629.192
624.433	11662.192
624.562	11671.462
624.690	11729.894
624.818	11590.952
624.946	11635.067
625.074	11601.538
625.202	11605.683
625.330	11631.885
625.458	11762.885
625.587	11603.346
625.715	11672.288
625.843	11629.981
625.971	11648.962
626.099	11695.423
626.227	11688.452
626.355	11636.298
626.483	11729.596
626.612	11654.827
626.740	11662.885
626.868	11655.394
626.996	11737.846
627.124	11675.692
627.252	11658.788
627.380	11691.240
627.508	11627.625
627.637	11732.779
627.765	11722.933
627.893	11723.462
628.021	11809.548
628.149	11703.337
628.277	11812.202
628.405	11731.596
628.533	11797.558
628.662	11789.760
628.790	11872.212
628.918	11796.817
629.046	11965.885
629.174	11793.462
629.302	11857.875
629.430	11808.087
629.558	11882.413
629.687	11819.990
629.815	11868.096
629.943	12010.519
630.071	11956.115
630.199	11935.856
630.327	11951.144
630.455	12001.750
630.583	11965.731
630.712	12016.019
630.840	12047.048
630.968	11975.750
631.096	12035.702
631.224	12078.173
631.352	12179.212
631.480	12088.096
631.608	12249.490
631.737	12087.231
631.865	12232.846
631.993	12221.115
632.121	12315.462
632.249	12205.606
632.377	12128.538
632.505	12179.606
632.633	12202.269
632.762	12156.712
632.890	12178.712
633.018	12190.779
633.146	12193.010
633.274	12157.817
633.402	12242.817
633.530	12176.865
633.658	12199.519
633.787	12182.606
633.915	12194.240
634.043	12206.260
634.171	12242.625
634.299	12227.952
634.427	12174.952
634.555	12442.413
634.683	12223.769
634.812	12232.846
634.940	12172.635
635.068	12187.106
635.196	12183.365
635.324	12174.750
635.452	12163.260
635.580	12270.846
635.708	12138.731
635.837	12140.644
635.965	12169.154
636.093	12121.654
636.221	12112.962
636.349	12024.817
636.477	12027.606
636.605	12098.077
636.733	12039.635
636.862	12014.971
636.990	12020.596
637.118	12022.740
637.246	11985.260
637.374	12112.327
637.502	11899.298
637.630	11908.529
637.758	11895.712
637.887	11845.731
638.015	12014.442
638.143	11919.971
638.271	11826.250
638.399	11868.904
638.527	11773.615
638.655	11793.433
638.783	11793.433
638.912	11850.221
639.040	11727.721
639.168	11759.442
639.296	11681.837
639.424	11800.663
639.552	11723.471
639.680	11761.529
639.808	11729.317
639.937	11678.654
640.065	11630.817
640.193	11664.269
640.321	11778.365
640.449	11706.760
640.577	11637.087
640.705	11663.663
640.833	11654.779
640.962	11758.952
641.090	11629.048
641.218	11655.144
641.346	11722.606
641.474	11648.779
641.602	11636.144
641.730	11640.567
641.858	11618.308
641.987	11646.933
642.115	11822.462
642.243	11668.077
642.371	11833.567
642.499	11671.077
642.627	11715.000
642.755	11641.827
642.883	11654.769
643.012	11644.192
643.140	11749.779
643.268	11728.827
643.396	11658.548
643.524	11659.442
643.652	11775.154
643.780	11693.433
643.908	11702.971
644.037	11809.798
644.165	11812.202
644.293	11924.490
644.421	11726.019
644.549	11778.663
644.677	11820.135
644.805	11756.135
644.933	11712.269
645.062	11776.173
645.190	11901.692
645.318	11808.087
645.446	11758.269
645.574	11751.029
645.702	11794.606
645.830	11815.452
645.958	11758.385
646.087	11755.144
646.215	11762.644
646.343	11765.856
646.471	11937.250
646.599	11749.269
646.727	11768.058
646.855	11771.337
646.983	11770.529
647.112	11873.663
647.240	11763.577
647.368	11814.702
647.496	11795.942
647.624	11776.202
647.752	11773.971
647.880	11741.596
648.008	11752.125
648.137	11803.587
648.265	11742.067
648.393	11847.000
648.521	11744.538
648.649	11894.433
648.777	11800.548
648.905	11773.202
649.033	11812.442
649.162	11675.106
649.290	11655.048
649.418	11710.019
649.546	11834.731
649.674	11662.471
649.802	11641.337
649.930	11623.308
650.058	11584.413
650.187	11632.010
650.315	11583.413
650.443	11560.356
650.571	11534.087
650.699	11505.817
650.827	11536.548
650.955	11520.712
651.083	11555.481
651.212	11474.933
651.340	11472.442
651.468	11433.279
651.596	11451.942
651.724	11472.462
651.852	11400.721
651.980	11389.471
652.108	11376.885
652.237	11394.625
652.365	11332.202
652.493	11305.990
652.621	11319.423
652.749	11298.356
652.877	11273.808
653.005	11334.163
653.133	11244.942
653.262	11232.760
653.390	11197.779
653.518	11379.577
653.646	11196.663
653.774	11183.048
653.902	11254.135
654.030	11202.173
654.158	11130.923
654.287	11180.731
654.415	11149.644
654.543	11144.029
654.671	11104.519
654.799	11106.788
654.927	11074.356
655.055	11047.058
655.183	11054.846
655.312	11033.971
655.440	11006.923
655.568	11005.769
655.696	11051.048
655.824	11016.712
655.952	11006.250
656.080	10954.096
656.208	10985.125
656.337	10970.856
656.465	11132.375
656.593	10947.038
656.721	11000.538
656.849	11052.769
656.977	10866.125
657.105	10884.163
657.233	10913.510
657.362	10994.087
657.490	10919.308
657.618	10887.654
657.746	10880.798
657.874	10779.779
658.002	10806.971
658.130	10769.654
658.258	10730.913
658.387	10699.779
658.515	10665.865
658.643	10654.942
658.771	10736.644
658.899	10645.846
659.027	10658.452
659.155	10640.413
659.283	10608.913
659.412	10609.442
659.540	10576.760
659.668	10645.798
659.796	10686.856
659.924	10633.923
660.052	10689.538
660.180	10600.673
660.308	10670.587
660.437	10627.423
660.565	10608.135
660.693	10503.452
660.821	10714.837
660.949	10503.692
661.077	10540.317
661.205	10648.433
661.333	10521.923
661.462	10472.183
661.590	10606.962
661.718	10457.625
661.846	10478.577
661.974	10443.538
662.102	10469.721
662.230	10439.192
662.358	10301.500
662.487	10414.048
662.615	10383.769
662.743	10381.077
662.871	10323.894
662.999	10308.087
663.127	10302.221
663.255	10283.577
663.383	10438.135
663.512	10256.269
663.640	10307.135
663.768	10307.702
663.896	10232.231
664.024	10280.962
664.152	10226.558
664.280	10317.712
664.408	10185.731
664.537	10189.760
664.665	10215.933
664.793	10198.740
664.921	10143.788
665.049	10212.173
665.177	10136.933
665.305	10177.067
665.433	10165.279
665.562	10298.442
665.690	10163.510
665.818	10267.510
665.946	10077.471
666.074	10059.548
666.202	10066.529
666.330	10011.481
666.458	10361.048
666.587	10024.788
666.715	10024.692
666.843	10025.154
666.971	10039.346
667.099	10041.519
667.227	10116.288
667.355	10071.885
667.483	10012.269
667.612	10040.077
667.740	10021.519
667.868	9957.500
667.996	9951.490
668.124	10010.394
668.252	10079.115
668.380	9930.385
668.508	9973.288
668.637	9922.221
668.765	9944.240
668.893	9920.260
669.021	9878.644
669.149	9931.913
669.277	9849.885
669.405	9967.625
669.533	9926.087
669.662	9839.760
669.790	9841.702
669.918	9880.913
670.046	9996.731
670.174	9767.240
670.302	9778.712
670.430	9731.404
670.558	9810.317
670.687	9912.413
670.815	9703.173
670.943	9776.798
671.071	9687.769
671.199	9662.913
671.327	9704.337
671.455	9689.010
671.583	9636.375
671.712	9614.962
671.840	9655.423
671.968	9767.260
672.096	9723.817
672.224	9544.077
672.352	9516.654
672.480	9439.817
672.608	9534.654
672.737	9469.904
672.865	9393.269
672.993	9386.019
673.121	9400.798
673.249	9366.250
673.377	9332.721
673.505	9316.337
673.633	9376.558
673.762	9297.510
673.890	9306.202
674.018	9309.663
674.146	9259.365
674.274	9232.683
674.402	9275.913
674.530	9244.740
674.658	9145.721
674.787	9139.760
674.915	9221.529
675.043	9103.038
675.171	9103.269
675.299	9044.000
675.427	9024.587
675.555	9020.981
675.683	9018.269
675.812	8938.375
675.940	8943.817
676.068	8891.481
676.196	8937.269
676.324	8866.808
676.452	8836.135
676.580	8781.490
676.708	8787.798
676.837	8758.942
676.965	8849.481
677.093	8877.808
677.221	8774.856
677.349	8650.125
677.477	8754.038
677.605	8597.135
677.733	8599.817
677.862	8586.000
677.990	8612.808
678.118	8623.029
678.246	8554.596
678.374	8595.712
678.502	8477.346
678.630	8422.981
678.758	8446.904
678.887	8584.192
679.015	8330.404
679.143	8356.077
679.271	8315.481
679.399	8302.269
679.527	8325.885
679.655	8330.096
679.783	8239.269
679.912	8227.298
680.040	8385.769
680.168	8177.317
680.296	8185.760
680.424	8146.885
680.552	8125.894
680.680	8104.019
680.808	8093.635
680.937	8051.337
681.065	8086.827
681.193	8016.904
681.321	7975.788
681.449	8009.058
681.577	7971.058
681.705	7943.212
681.833	7973.423
681.962	7886.500
682.090	7862.279
682.218	7873.183
682.346	7878.202
682.474	7820.577
682.602	7794.529
682.730	7860.096
682.858	7760.125
682.987	7783.298
683.115	7780.048
683.243	7747.288
683.371	7735.279
683.499	7687.760
683.627	7735.596
683.755	7644.644
683.883	7654.894
684.012	7637.490
684.140	7580.481
684.268	7617.404
684.396	7644.567
684.524	7562.183
684.652	7587.548
684.780	7587.606
684.908	7556.548
685.037	7565.019
685.165	7529.500
685.293	7569.788
685.421	7525.490
685.549	7534.548
685.677	7442.356
685.805	7493.587
685.933	7451.394
686.062	7437.990
686.190	7393.663
686.318	7357.788
686.446	7348.288
686.574	7311.260
686.702	7385.538
686.830	7283.760
686.958	7344.760
687.087	7241.038
687.215	7277.875
687.343	7273.577
687.471	7377.885
687.599	7177.510
687.727	7182.317
687.855	7141.904
687.983	7109.337
688.112	7156.385
688.240	7112.058
688.368	7105.913
688.496	7076.125
688.624	7024.702
688.752	7185.721
688.880	7034.769
689.008	7027.173
689.137	7002.269
689.265	6953.067
689.393	6951.231
689.521	6918.500
689.649	7005.029
689.777	6932.962
689.905	6990.875
690.033	6846.202
690.162	6834.567
690.290	6858.183
690.418	6775.192
690.546	6852.654
690.674	6837.404
690.802	6803.558
690.930	6769.500
691.058	6749.692
691.187	6700.019
691.315	6674.856
691.443	6663.423
691.571	6625.115
691.699	6607.856
691.827	6565.106
691.955	6584.885
692.083	6550.269
692.212	6529.971
692.340	6529.154
692.468	6535.971
692.596	6513.240
692.724	6478.375
692.852	6474.356
692.980	6461.962
693.108	6505.173
693.237	6382.663
693.365	6366.923
693.493	6356.510
693.621	6338.433
693.749	6280.760
693.877	6335.856
694.005	6234.519
694.133	6236.481
694.262	6286.077
694.390	6145.692
694.518	6179.740
694.646	6170.962
694.774	6081.260
694.902	6080.538
695.030	6079.663
695.158	6049.413
695.287	6055.933
695.415	6043.529
695.543	5996.327
695.671	5943.337
695.799	6041.567
695.927	5945.404
696.055	5921.779
696.183	5881.606
696.312	6056.221
696.440	5854.577
696.568	5856.423
696.696	5755.115
696.824	5705.519
696.952	5719.548
697.080	5711.077
697.208	5634.106
697.337	5643.452
697.465	5638.490
697.593	5598.875
697.721	5680.327
697.849	5563.971
697.977	5576.923
698.105	5627.029
698.233	5566.721
698.362	5468.875
698.490	5596.798
698.618	5434.462
698.746	5402.327
698.874	5478.106
699.002	5415.654
699.130	5405.452
699.258	5370.683
699.387	5300.846
699.515	5337.192
699.643	5341.740
699.771	5404.010
699.899	5263.692
700.027	5191.981
700.155	5266.317
700.283	5125.952
700.412	5140.038
700.540	5205.058
700.668	5218.413
700.796	5086.808
700.924	5113.135
701.052	5123.375
701.180	5090.731
701.308	5005.346
701.437	4944.740
701.565	4964.308
701.693	4993.433
701.821	5139.548
701.949	4895.625
702.077	4906.904
702.205	4963.548
702.333	4853.817
702.462	4822.442
702.590	4896.115
702.718	4780.010
702.846	4964.538
702.974	4735.096
703.102	4730.663
703.230	4762.904
703.358	4677.875
703.487	4661.154
703.615	4636.279
703.743	4633.490
703.871	4603.288
703.999	4617.221
704.127	4565.183
704.255	4546.144
704.383	4561.135
704.512	4597.644
704.640	4564.087
704.768	4608.452
704.896	4459.490
705.024	4412.365
705.152	4413.644
705.280	4438.606
705.408	4375.394
705.537	4330.308
705.665	4340.029
705.793	4332.144
705.921	4302.837
706.049	4273.375
706.177	4292.317
706.305	4227.279
706.433	4271.183
706.562	4218.913
706.690	4228.846
706.818	4199.952
706.946	4125.067
707.074	4111.904
707.202	4081.240
707.330	4088.846
707.458	4054.962
707.587	4029.731
707.715	4053.740
707.843	4041.577
707.971	4035.577
708.099	3965.471
708.227	3935.683
708.355	3931.077
708.483	3910.144
708.612	3929.221
708.740	3879.163
708.868	3861.288
708.996	3909.115
709.124	3891.538
709.252	3846.231
709.380	3843.260
709.508	3785.317
709.637	3820.135
709.765	3770.577
709.893	3787.750
710.021	3705.731
710.149	3769.837
710.277	3675.327
710.405	3678.788
710.533	3667.404
710.662	3636.394
710.790	3731.048
710.918	3593.894
711.046	3646.856
711.174	3589.067
711.302	3623.048
711.430	3582.788
711.558	3584.981
711.687	3560.625
711.815	3516.115
711.943	3481.385
712.071	3481.644
712.199	3498.750
712.327	3541.885
712.455	3435.683
712.583	3563.817
712.712	3439.817
712.840	3474.423
712.968	3400.885
713.096	3371.317
713.224	3365.808
713.352	3349.385
713.480	3316.577
713.608	3288.356
713.737	3276.875
713.865	3319.413
713.993	3283.452
714.121	3285.433
714.249	3244.712
714.377	3217.308
714.505	3213.279
714.633	3219.615
714.762	3183.048
714.890	3187.990
715.018	3161.692
715.146	3190.875
715.274	3129.154
715.402	3126.519
715.530	3110.721
715.658	3129.163
715.787	3115.702
715.915	3165.779
716.043	3079.365
716.171	3175.577
716.299	3018.788
716.427	3091.212
716.555	3004.067
716.683	3003.952
716.812	2988.212
716.940	2972.077
717.068	2935.058
717.196	3096.529
717.324	2959.500
717.452	2918.298
717.580	2959.750
717.708	2873.519
717.837	2894.500
717.965	2919.192
718.093	2871.433
718.221	2887.375
718.349	2914.663
718.477	2836.010
718.605	2901.529
718.733	2824.221
718.862	2843.240
718.990	2767.808
719.118	2825.510
719.246	2765.442
719.374	2713.106
719.502	2769.231
719.630	2857.933
719.758	2704.702
719.887	2689.452
720.015	2714.423
720.143	2733.587
720.271	2628.981
720.399	2682.923
720.527	2626.212
720.655	2703.519
720.783	2597.721
720.912	2578.740
721.040	2579.712
721.168	2611.260
721.296	2540.913
721.424	2557.029
721.552	2528.125
721.680	2585.308
721.808	2539.106
721.937	2523.038
722.065	2554.712
722.193	2494.731
722.321	2493.885
722.449	2476.577
722.577	2439.567
722.705	2430.000
722.833	2470.740
722.962	2460.615
723.090	2429.250
