90_90_wo_Pol_at_750.00nm_cut_at_1179.00Y_01.dat
03.07.2023
11:21:18
cut middle at Y: 1179.00
top cursor: 1231 down cursor: 1127 mean of: 104 lines , 2560 datapoints
wavelength(nm)	intensity[arb. units]
585.996	23460.625
586.124	23060.096
586.252	23068.404
586.380	23133.308
586.508	23180.173
586.637	23330.356
586.765	23350.106
586.893	23372.702
587.021	23443.019
587.149	23517.125
587.277	23553.683
587.405	23560.510
587.533	23671.837
587.662	23654.663
587.790	23639.587
587.918	23654.000
588.046	23628.019
588.174	23701.567
588.302	23731.019
588.430	23750.163
588.558	23755.337
588.687	23760.192
588.815	23703.019
588.943	23747.192
589.071	23719.317
589.199	23733.192
589.327	23744.442
589.455	23765.596
589.583	23737.125
589.712	23755.740
589.840	23692.510
589.968	23701.952
590.096	23755.615
590.224	23699.663
590.352	23832.885
590.480	23782.596
590.608	23732.413
590.737	23760.356
590.865	23745.558
590.993	23640.894
591.121	23678.327
591.249	23675.183
591.377	23715.077
591.505	23764.788
591.633	23707.471
591.762	23705.885
591.890	23720.538
592.018	23852.385
592.146	23803.731
592.274	23769.644
592.402	23747.115
592.530	23958.337
592.658	23866.317
592.787	23893.058
592.915	23955.933
593.043	23816.837
593.171	23957.875
593.299	23898.654
593.427	23915.115
593.555	23967.837
593.683	23983.048
593.812	24003.913
593.940	24076.740
594.068	24104.500
594.196	24091.933
594.324	24177.654
594.452	24390.558
594.580	24317.644
594.708	24321.952
594.837	24371.250
594.965	24499.971
595.093	24489.356
595.221	24620.885
595.349	24606.212
595.477	24617.731
595.605	24697.827
595.733	24707.750
595.862	24744.769
595.990	24702.942
596.118	24801.490
596.246	24879.173
596.374	24825.644
596.502	24914.875
596.630	24905.971
596.758	24894.462
596.887	25012.375
597.015	25034.106
597.143	24947.875
597.271	25039.404
597.399	25155.712
597.527	25052.587
597.655	25093.990
597.783	25114.192
597.912	25121.077
598.040	25137.365
598.168	25151.846
598.296	25093.817
598.424	25220.413
598.552	25033.327
598.680	25105.769
598.808	25243.529
598.937	25139.481
599.065	25084.250
599.193	25153.298
599.321	25146.990
599.449	25097.788
599.577	25082.827
599.705	25049.423
599.833	25017.173
599.962	24944.067
600.090	25072.433
600.218	24983.375
600.346	25025.510
600.474	24935.221
600.602	24966.183
600.730	24974.673
600.858	25033.462
600.987	25175.962
601.115	24974.490
601.243	25065.817
601.371	25111.452
601.499	25095.462
601.627	25188.577
601.755	25154.510
601.883	25171.308
602.012	25052.163
602.140	25129.933
602.268	25172.731
602.396	25319.606
602.524	25303.029
602.652	25441.731
602.780	25357.048
602.908	25450.269
603.037	25565.404
603.165	25515.163
603.293	25643.856
603.421	25660.625
603.549	25725.644
603.677	25842.202
603.805	25834.192
603.933	25886.865
604.062	26066.240
604.190	26160.260
604.318	26196.635
604.446	26165.788
604.574	26273.308
604.702	26348.529
604.830	26368.231
604.958	26401.683
605.087	26561.702
605.215	26668.240
605.343	26774.077
605.471	26789.712
605.599	26821.135
605.727	27004.452
605.855	27083.067
605.983	27086.346
606.112	27148.875
606.240	27175.048
606.368	27181.337
606.496	27210.788
606.624	27323.760
606.752	27270.058
606.880	27388.548
607.008	27397.221
607.137	27406.308
607.265	27503.135
607.393	27515.154
607.521	27564.904
607.649	27523.673
607.777	27482.087
607.905	27538.654
608.033	27497.846
608.162	27454.808
608.290	27491.173
608.418	27611.356
608.546	27600.490
608.674	27648.788
608.802	27563.904
608.930	27528.817
609.058	27497.750
609.187	27499.212
609.315	27506.577
609.443	27487.125
609.571	27566.923
609.699	27383.250
609.827	27457.087
609.955	27474.933
610.083	27346.106
610.212	27328.010
610.340	27261.510
610.468	27306.452
610.596	27271.471
610.724	27261.471
610.852	27286.894
610.980	27267.558
611.108	27261.192
611.237	27276.087
611.365	27290.519
611.493	27245.962
611.621	27253.587
611.749	27277.548
611.877	27315.154
612.005	27322.442
612.133	27365.760
612.262	27389.077
612.390	27423.981
612.518	27440.087
612.646	27445.308
612.774	27558.058
612.902	27488.548
613.030	27546.644
613.158	27506.317
613.287	27610.019
613.415	27571.923
613.543	27591.875
613.671	27657.712
613.799	27701.990
613.927	27761.000
614.055	27839.029
614.183	27829.058
614.312	27850.913
614.440	28001.712
614.568	28036.365
614.696	28084.808
614.824	28111.212
614.952	28137.702
615.080	28212.731
615.208	28324.952
615.337	28412.240
615.465	28368.385
615.593	28539.413
615.721	28415.856
615.849	28584.471
615.977	28600.510
616.105	28633.663
616.233	28709.606
616.362	28861.558
616.490	28830.490
616.618	28915.644
616.746	29027.769
616.874	29068.462
617.002	29085.000
617.130	29135.817
617.258	29101.240
617.387	29138.067
617.515	29186.385
617.643	29197.135
617.771	29308.885
617.899	29254.260
618.027	29342.519
618.155	29350.173
618.283	29391.462
618.412	29426.019
618.540	29516.654
618.668	29466.490
618.796	29493.019
618.924	29512.971
619.052	29557.067
619.180	29460.144
619.308	29425.683
619.437	29444.404
619.565	29517.500
619.693	29471.750
619.821	29507.202
619.949	29449.846
620.077	29521.827
620.205	29506.654
620.333	29506.279
620.462	29517.548
620.590	29507.423
620.718	29563.394
620.846	29566.356
620.974	29579.712
621.102	29525.615
621.230	29543.750
621.358	29616.471
621.487	29498.029
621.615	29515.933
621.743	29414.817
621.871	29525.904
621.999	29461.644
622.127	29439.481
622.255	29416.029
622.383	29386.827
622.512	29429.798
622.640	29318.663
622.768	29438.423
622.896	29462.471
623.024	29399.731
623.152	29398.894
623.280	29448.385
623.408	29414.404
623.537	29479.240
623.665	29401.260
623.793	29511.077
623.921	29427.692
624.049	29465.490
624.177	29389.808
624.305	29409.038
624.433	29364.808
624.562	29421.808
624.690	29431.567
624.818	29304.356
624.946	29273.192
625.074	29322.298
625.202	29309.404
625.330	29297.615
625.458	29452.760
625.587	29348.981
625.715	29383.423
625.843	29360.981
625.971	29474.471
626.099	29388.673
626.227	29387.490
626.355	29343.837
626.483	29386.337
626.612	29435.154
626.740	29472.731
626.868	29484.231
626.996	29457.231
627.124	29518.673
627.252	29453.250
627.380	29503.635
627.508	29428.740
627.637	29483.385
627.765	29596.221
627.893	29595.029
628.021	29596.173
628.149	29591.606
628.277	29673.365
628.405	29624.663
628.533	29583.808
628.662	29667.702
628.790	29809.538
628.918	29761.683
629.046	29920.115
629.174	29843.500
629.302	29792.356
629.430	29808.952
629.558	29867.750
629.687	29913.615
629.815	29973.587
629.943	30134.087
630.071	30084.413
630.199	30076.615
630.327	30162.740
630.455	30232.471
630.583	30130.654
630.712	30230.894
630.840	30303.519
630.968	30290.760
631.096	30389.125
631.224	30333.837
631.352	30467.385
631.480	30490.250
631.608	30627.846
631.737	30475.510
631.865	30578.587
631.993	30602.038
632.121	30725.962
632.249	30654.942
632.377	30639.087
632.505	30691.221
632.633	30750.548
632.762	30609.029
632.890	30729.452
633.018	30713.779
633.146	30683.913
633.274	30659.279
633.402	30694.250
633.530	30685.375
633.658	30713.375
633.787	30702.019
633.915	30704.817
634.043	30708.125
634.171	30785.654
634.299	30727.673
634.427	30660.827
634.555	30910.663
634.683	30738.250
634.812	30692.798
634.940	30596.587
635.068	30616.971
635.196	30576.913
635.324	30599.423
635.452	30588.731
635.580	30584.740
635.708	30515.394
635.837	30519.808
635.965	30470.356
636.093	30441.567
636.221	30333.394
636.349	30251.442
636.477	30251.279
636.605	30270.846
636.733	30240.077
636.862	30097.375
636.990	30118.962
637.118	30076.615
637.246	30020.606
637.374	30138.106
637.502	29916.779
637.630	29926.538
637.758	29808.923
637.887	29806.087
638.015	29889.702
638.143	29764.808
638.271	29640.875
638.399	29700.288
638.527	29584.529
638.655	29579.587
638.783	29551.471
638.912	29590.942
639.040	29392.490
639.168	29365.221
639.296	29328.942
639.424	29422.952
639.552	29264.875
639.680	29366.288
639.808	29251.673
639.937	29252.442
640.065	29249.058
640.193	29254.692
640.321	29264.510
640.449	29245.135
640.577	29174.096
640.705	29174.394
640.833	29147.837
640.962	29196.519
641.090	29086.913
641.218	29106.058
641.346	29196.087
641.474	29129.567
641.602	29138.077
641.730	29077.096
641.858	29120.394
641.987	29133.913
642.115	29286.952
642.243	29118.625
642.371	29237.288
642.499	29095.500
642.627	29172.231
642.755	29120.442
642.883	29179.452
643.012	29151.558
643.140	29201.048
643.268	29179.327
643.396	29071.942
643.524	29140.231
643.652	29228.337
643.780	29167.327
643.908	29162.250
644.037	29271.500
644.165	29306.279
644.293	29337.904
644.421	29184.606
644.549	29215.510
644.677	29255.298
644.805	29169.125
644.933	29155.510
645.062	29219.154
645.190	29357.067
645.318	29317.779
645.446	29246.625
645.574	29218.933
645.702	29223.625
645.830	29270.587
645.958	29193.933
646.087	29256.663
646.215	29216.087
646.343	29190.615
646.471	29363.510
646.599	29187.827
646.727	29191.510
646.855	29224.038
646.983	29134.981
647.112	29259.692
647.240	29217.029
647.368	29187.106
647.496	29161.144
647.624	29103.971
647.752	29137.702
647.880	29100.067
648.008	29093.192
648.137	29147.490
648.265	29074.942
648.393	29165.029
648.521	29045.779
648.649	29169.298
648.777	29041.019
648.905	28963.365
649.033	28957.885
649.162	28862.942
649.290	28776.356
649.418	28748.173
649.546	28944.394
649.674	28711.029
649.802	28740.740
649.930	28660.962
650.058	28626.029
650.187	28630.529
650.315	28557.894
650.443	28573.625
650.571	28470.625
650.699	28459.288
650.827	28402.529
650.955	28361.404
651.083	28335.577
651.212	28242.846
651.340	28211.779
651.468	28240.990
651.596	28173.481
651.724	28123.413
651.852	28090.269
651.980	28052.173
652.108	27960.673
652.237	27990.010
652.365	27935.423
652.493	27888.240
652.621	27856.115
652.749	27885.529
652.877	27822.096
653.005	27829.192
653.133	27738.663
653.262	27683.010
653.390	27658.615
653.518	27700.221
653.646	27571.740
653.774	27490.212
653.902	27627.923
654.030	27539.058
654.158	27466.106
654.287	27470.356
654.415	27396.240
654.543	27413.558
654.671	27358.279
654.799	27374.212
654.927	27296.913
655.055	27276.394
655.183	27230.817
655.312	27201.337
655.440	27151.894
655.568	27157.654
655.696	27180.577
655.824	27072.269
655.952	27084.288
656.080	26982.673
656.208	27019.327
656.337	27021.481
656.465	27140.260
656.593	26944.856
656.721	26917.433
656.849	26914.269
656.977	26745.808
657.105	26798.365
657.233	26802.433
657.362	26863.865
657.490	26760.192
657.618	26803.404
657.746	26707.615
657.874	26550.202
658.002	26449.683
658.130	26382.192
658.258	26352.837
658.387	26325.913
658.515	26310.769
658.643	26201.875
658.771	26295.721
658.899	26213.433
659.027	26180.654
659.155	26127.288
659.283	26039.567
659.412	26020.067
659.540	25997.394
659.668	26054.096
659.796	26173.500
659.924	26075.904
660.052	26207.798
660.180	26117.029
660.308	26072.981
660.437	26069.913
660.565	25988.394
660.693	25808.538
660.821	25954.894
660.949	25774.769
661.077	25793.779
661.205	25951.740
661.333	25756.615
661.462	25672.000
661.590	25725.269
661.718	25659.865
661.846	25638.615
661.974	25553.077
662.102	25562.452
662.230	25526.106
662.358	25387.875
662.487	25435.606
662.615	25360.413
662.743	25374.567
662.871	25409.260
662.999	25313.135
663.127	25235.096
663.255	25157.279
663.383	25342.712
663.512	25153.981
663.640	25182.144
663.768	25208.000
663.896	25074.827
664.024	25095.096
664.152	25104.471
664.280	25109.077
664.408	24973.952
664.537	24983.077
664.665	24940.154
664.793	24990.077
664.921	24881.221
665.049	24996.048
665.177	24892.721
665.305	24874.654
665.433	24841.856
665.562	24994.625
665.690	24783.240
665.818	24944.577
665.946	24719.596
666.074	24686.577
666.202	24677.067
666.330	24636.404
666.458	24872.462
666.587	24581.827
666.715	24573.240
666.843	24507.000
666.971	24482.260
667.099	24486.404
667.227	24536.615
667.355	24541.058
667.483	24448.538
667.612	24520.548
667.740	24391.337
667.868	24361.394
667.996	24356.548
668.124	24366.923
668.252	24428.317
668.380	24261.413
668.508	24268.981
668.637	24154.673
668.765	24207.788
668.893	24141.385
669.021	24094.490
669.149	24099.288
669.277	24029.846
669.405	24185.385
669.533	24111.413
669.662	24006.462
669.790	23961.115
669.918	23927.279
670.046	24076.317
670.174	23833.827
670.302	23766.769
670.430	23724.135
670.558	23795.702
670.687	23861.221
670.815	23650.846
670.943	23686.462
671.071	23574.702
671.199	23528.577
671.327	23510.635
671.455	23529.856
671.583	23431.298
671.712	23362.173
671.840	23470.548
671.968	23529.010
672.096	23436.231
672.224	23228.288
672.352	23198.385
672.480	23111.231
672.608	23114.731
672.737	23098.356
672.865	23043.702
672.993	22956.317
673.121	22857.029
673.249	22836.750
673.377	22821.019
673.505	22759.923
673.633	22794.577
673.762	22633.163
673.890	22648.990
674.018	22684.462
674.146	22537.019
674.274	22527.625
674.402	22500.317
674.530	22419.096
674.658	22378.327
674.787	22242.413
674.915	22366.317
675.043	22194.885
675.171	22158.962
675.299	22118.413
675.427	22036.519
675.555	21989.490
675.683	21961.837
675.812	21881.529
675.940	21858.971
676.068	21701.231
676.196	21790.615
676.324	21671.183
676.452	21658.096
676.580	21513.288
676.708	21497.067
676.837	21437.663
676.965	21501.740
677.093	21504.442
677.221	21338.087
677.349	21178.654
677.477	21245.212
677.605	21086.519
677.733	21079.885
677.862	21049.125
677.990	21011.010
678.118	21006.048
678.246	20880.692
678.374	20911.567
678.502	20783.067
678.630	20664.077
678.758	20675.904
678.887	20765.202
679.015	20488.644
679.143	20484.192
679.271	20431.240
679.399	20387.019
679.527	20352.856
679.655	20422.837
679.783	20266.615
679.912	20231.163
680.040	20353.058
680.168	20091.529
680.296	20102.538
680.424	20036.279
680.552	19946.375
680.680	19915.173
680.808	19847.029
680.937	19817.740
681.065	19820.721
681.193	19726.019
681.321	19692.365
681.449	19716.692
681.577	19647.356
681.705	19606.798
681.833	19578.087
681.962	19506.413
682.090	19491.788
682.218	19379.846
682.346	19335.048
682.474	19338.894
682.602	19272.788
682.730	19305.904
682.858	19210.577
682.987	19156.952
683.115	19148.404
683.243	19117.548
683.371	19092.760
683.499	19037.404
683.627	19045.067
683.755	18951.962
683.883	18934.615
684.012	18887.115
684.140	18828.885
684.268	18819.779
684.396	18863.952
684.524	18736.221
684.652	18748.846
684.780	18729.077
684.908	18617.606
685.037	18638.058
685.165	18553.529
685.293	18605.644
685.421	18523.433
685.549	18467.125
685.677	18414.529
685.805	18421.788
685.933	18332.173
686.062	18330.269
686.190	18240.798
686.318	18235.683
686.446	18161.596
686.574	18127.673
686.702	18143.337
686.830	18043.808
686.958	18078.644
687.087	17999.481
687.215	17961.510
687.343	17960.865
687.471	18049.077
687.599	17781.038
687.727	17781.212
687.855	17727.827
687.983	17677.990
688.112	17714.769
688.240	17617.288
688.368	17646.442
688.496	17555.808
688.624	17508.154
688.752	17577.221
688.880	17417.394
689.008	17343.538
689.137	17354.990
689.265	17247.962
689.393	17226.923
689.521	17181.096
689.649	17293.385
689.777	17157.019
689.905	17169.577
690.033	17042.817
690.162	17006.096
690.290	17022.240
690.418	16935.375
690.546	16926.721
690.674	16874.365
690.802	16835.760
690.930	16784.923
691.058	16713.913
691.187	16656.981
691.315	16578.644
691.443	16548.635
691.571	16531.635
691.699	16446.087
691.827	16414.192
691.955	16372.673
692.083	16314.212
692.212	16288.308
692.340	16268.385
692.468	16261.462
692.596	16161.760
692.724	16084.010
692.852	16124.663
692.980	16062.250
693.108	16065.904
693.237	15951.183
693.365	15901.260
693.493	15837.942
693.621	15819.740
693.749	15733.327
693.877	15715.885
694.005	15588.385
694.133	15520.615
694.262	15597.413
694.390	15456.125
694.518	15401.942
694.646	15393.317
694.774	15314.433
694.902	15250.308
695.030	15199.154
695.158	15134.298
695.287	15112.423
695.415	15070.202
695.543	15015.308
695.671	14929.798
695.799	14992.365
695.927	14803.058
696.055	14846.096
696.183	14725.096
696.312	14860.010
696.440	14689.019
696.568	14649.519
696.696	14494.240
696.824	14429.317
696.952	14385.577
697.080	14388.337
697.208	14265.875
697.337	14285.298
697.465	14173.606
697.593	14095.423
697.721	14201.394
697.849	14003.144
697.977	14043.510
698.105	14050.356
698.233	13948.846
698.362	13837.423
698.490	13944.433
698.618	13722.163
698.746	13687.856
698.874	13729.231
699.002	13641.221
699.130	13647.663
699.258	13507.087
699.387	13455.971
699.515	13482.558
699.643	13406.048
699.771	13454.769
699.899	13303.288
700.027	13225.808
700.155	13230.817
700.283	13118.740
700.412	13093.663
700.540	13075.058
700.668	13074.019
700.796	12940.260
700.924	12974.942
701.052	12922.404
701.180	12884.471
701.308	12769.346
701.437	12726.308
701.565	12686.587
701.693	12669.154
701.821	12819.587
701.949	12560.990
702.077	12534.067
702.205	12539.913
702.333	12446.904
702.462	12377.067
702.590	12404.663
702.718	12245.452
702.846	12386.202
702.974	12185.202
703.102	12150.144
703.230	12137.587
703.358	12071.346
703.487	12014.779
703.615	11968.904
703.743	11882.346
703.871	11915.952
703.999	11849.135
704.127	11775.442
704.255	11700.481
704.383	11673.010
704.512	11731.221
704.640	11656.567
704.768	11650.394
704.896	11475.077
705.024	11400.375
705.152	11400.942
705.280	11378.827
705.408	11262.173
705.537	11212.596
705.665	11194.894
705.793	11127.606
705.921	11086.577
706.049	11005.019
706.177	11020.635
706.305	10938.875
706.433	10933.183
706.562	10865.817
706.690	10847.202
706.818	10797.087
706.946	10690.356
707.074	10638.577
707.202	10602.567
707.330	10560.346
707.458	10487.856
707.587	10426.452
707.715	10463.596
707.843	10419.760
707.971	10369.173
708.099	10311.144
708.227	10236.096
708.355	10188.288
708.483	10146.260
708.612	10144.385
708.740	10032.904
708.868	10009.173
708.996	10041.269
709.124	10005.712
709.252	9942.404
709.380	9884.837
709.508	9845.923
709.637	9823.625
709.765	9760.760
709.893	9770.413
710.021	9651.663
710.149	9743.846
710.277	9564.163
710.405	9544.019
710.533	9533.558
710.662	9467.212
710.790	9581.365
710.918	9397.567
711.046	9426.394
711.174	9339.702
711.302	9337.356
711.430	9231.163
711.558	9263.837
711.687	9199.635
711.815	9135.212
711.943	9103.471
712.071	9057.240
712.199	9083.731
712.327	9101.452
712.455	8950.942
712.583	9110.760
712.712	8930.077
712.840	8929.317
712.968	8838.154
713.096	8803.538
713.224	8718.240
713.352	8748.019
713.480	8650.885
713.608	8609.000
713.737	8590.933
713.865	8593.577
713.993	8555.106
714.121	8527.192
714.249	8451.827
714.377	8411.798
714.505	8389.462
714.633	8391.087
714.762	8306.423
714.890	8289.010
715.018	8289.481
715.146	8271.933
715.274	8206.567
715.402	8158.529
715.530	8133.702
715.658	8163.394
715.787	8086.981
715.915	8163.683
716.043	8004.288
716.171	8134.077
716.299	7912.740
716.427	7995.442
716.555	7900.673
716.683	7888.875
716.812	7833.933
716.940	7805.317
717.068	7725.087
717.196	7892.269
717.324	7727.923
717.452	7705.077
717.580	7707.817
717.708	7585.913
717.837	7582.413
717.965	7619.798
718.093	7526.971
718.221	7533.212
718.349	7582.462
718.477	7440.279
718.605	7520.356
718.733	7417.202
718.862	7423.192
718.990	7318.644
719.118	7340.029
719.246	7257.740
719.374	7193.394
719.502	7258.673
719.630	7337.942
719.758	7109.096
719.887	7112.500
