70_80_wo_Pol_at_750.00nm_cut_at_1179.00Y_01.dat
03.07.2023
10:56:31
cut middle at Y: 1179.00
top cursor: 1231 down cursor: 1127 mean of: 104 lines , 2560 datapoints
wavelength(nm)	intensity[arb. units]
585.996	24726.413
586.124	24373.269
586.252	24336.827
586.380	24391.163
586.508	24491.106
586.637	24604.337
586.765	24601.798
586.893	24683.683
587.021	24669.423
587.149	24709.788
587.277	24805.212
587.405	24829.423
587.533	24913.423
587.662	24865.231
587.790	24898.606
587.918	24867.375
588.046	24868.173
588.174	24951.356
588.302	24929.231
588.430	24951.048
588.558	24953.385
588.687	25031.558
588.815	25003.308
588.943	24992.183
589.071	24984.202
589.199	24994.529
589.327	24997.375
589.455	24991.798
589.583	25013.394
589.712	25022.212
589.840	24934.019
589.968	24964.115
590.096	24957.317
590.224	25012.231
590.352	25097.577
590.480	25035.760
590.608	24963.519
590.737	25024.538
590.865	25036.067
590.993	24942.077
591.121	24983.923
591.249	24983.740
591.377	25038.510
591.505	25093.808
591.633	24993.654
591.762	25040.500
591.890	25034.308
592.018	25102.010
592.146	25082.606
592.274	25009.163
592.402	25038.538
592.530	25284.942
592.658	25209.885
592.787	25221.587
592.915	25268.385
593.043	25214.183
593.171	25289.067
593.299	25293.894
593.427	25240.260
593.555	25302.019
593.683	25357.212
593.812	25362.808
593.940	25449.519
594.068	25426.404
594.196	25434.337
594.324	25480.327
594.452	25695.587
594.580	25618.519
594.708	25674.990
594.837	25718.163
594.965	25800.250
595.093	25829.087
595.221	26015.510
595.349	25911.788
595.477	25973.115
595.605	26061.779
595.733	26049.048
595.862	26061.442
595.990	26059.923
596.118	26158.144
596.246	26228.904
596.374	26223.212
596.502	26294.779
596.630	26254.250
596.758	26250.942
596.887	26362.856
597.015	26381.933
597.143	26358.577
597.271	26370.298
597.399	26441.173
597.527	26425.990
597.655	26418.933
597.783	26495.615
597.912	26460.654
598.040	26507.404
598.168	26515.865
598.296	26422.923
598.424	26595.635
598.552	26403.462
598.680	26411.490
598.808	26569.327
598.937	26468.856
599.065	26448.144
599.193	26468.750
599.321	26551.442
599.449	26475.135
599.577	26366.971
599.705	26389.144
599.833	26374.202
599.962	26347.558
600.090	26371.500
600.218	26305.817
600.346	26290.135
600.474	26274.269
600.602	26306.519
600.730	26337.452
600.858	26353.558
600.987	26417.096
601.115	26317.779
601.243	26380.154
601.371	26431.019
601.499	26382.250
601.627	26439.288
601.755	26406.865
601.883	26479.462
602.012	26369.712
602.140	26485.462
602.268	26451.298
602.396	26602.519
602.524	26602.019
602.652	26708.548
602.780	26639.558
602.908	26759.452
603.037	26823.462
603.165	26844.404
603.293	26885.260
603.421	26933.529
603.549	26991.923
603.677	27028.808
603.805	27062.558
603.933	27150.231
604.062	27273.327
604.190	27429.481
604.318	27414.779
604.446	27432.606
604.574	27595.115
604.702	27536.413
604.830	27601.856
604.958	27663.481
605.087	27737.231
605.215	27897.019
605.343	27958.837
605.471	28045.173
605.599	28021.337
605.727	28202.317
605.855	28240.260
605.983	28295.212
606.112	28322.635
606.240	28350.712
606.368	28379.587
606.496	28381.442
606.624	28486.654
606.752	28499.212
606.880	28553.029
607.008	28577.962
607.137	28572.952
607.265	28691.212
607.393	28748.317
607.521	28785.760
607.649	28746.202
607.777	28709.308
607.905	28730.135
608.033	28742.346
608.162	28705.692
608.290	28729.394
608.418	28765.558
608.546	28825.269
608.674	28819.885
608.802	28763.462
608.930	28799.606
609.058	28721.990
609.187	28733.837
609.315	28733.385
609.443	28724.808
609.571	28839.769
609.699	28646.106
609.827	28743.635
609.955	28685.404
610.083	28649.125
610.212	28629.981
610.340	28553.087
610.468	28593.212
610.596	28576.788
610.724	28573.913
610.852	28605.433
610.980	28604.721
611.108	28533.346
611.237	28613.067
611.365	28584.317
611.493	28539.183
611.621	28550.221
611.749	28537.663
611.877	28641.942
612.005	28587.096
612.133	28653.048
612.262	28621.038
612.390	28701.837
612.518	28764.317
612.646	28712.913
612.774	28882.327
612.902	28806.577
613.030	28829.971
613.158	28790.663
613.287	28863.010
613.415	28802.337
613.543	28818.221
613.671	28917.654
613.799	28906.413
613.927	28904.096
614.055	29043.798
614.183	28989.202
614.312	29041.740
614.440	29159.952
614.568	29200.510
614.696	29228.135
614.824	29218.779
614.952	29322.577
615.080	29328.125
615.208	29447.317
615.337	29484.365
615.465	29460.452
615.593	29607.933
615.721	29508.875
615.849	29669.192
615.977	29650.308
616.105	29692.346
616.233	29778.154
616.362	29937.721
616.490	29891.904
616.618	29934.038
616.746	30069.317
616.874	30035.019
617.002	30089.712
617.130	30082.077
617.258	30129.654
617.387	30145.452
617.515	30179.106
617.643	30120.683
617.771	30217.942
617.899	30198.423
618.027	30303.510
618.155	30319.240
618.283	30306.058
618.412	30366.692
618.540	30387.317
618.668	30395.538
618.796	30408.298
618.924	30411.712
619.052	30368.404
619.180	30317.875
619.308	30311.288
619.437	30316.990
619.565	30365.279
619.693	30350.673
619.821	30345.933
619.949	30328.644
620.077	30352.548
620.205	30326.048
620.333	30349.721
620.462	30298.663
620.590	30388.385
620.718	30386.173
620.846	30344.856
620.974	30339.712
621.102	30417.317
621.230	30354.346
621.358	30471.442
621.487	30322.346
621.615	30305.750
621.743	30191.471
621.871	30248.058
621.999	30237.250
622.127	30234.346
622.255	30200.712
622.383	30219.567
622.512	30133.769
622.640	30144.548
622.768	30164.904
622.896	30166.827
623.024	30143.212
623.152	30115.933
623.280	30203.212
623.408	30220.692
623.537	30172.827
623.665	30068.731
623.793	30165.250
623.921	30139.817
624.049	30121.000
624.177	30113.096
624.305	30133.817
624.433	30055.683
624.562	30028.673
624.690	30128.010
624.818	29967.029
624.946	29965.490
625.074	29936.904
625.202	29947.125
625.330	29957.596
625.458	30107.221
625.587	29923.365
625.715	29986.731
625.843	29889.846
625.971	30020.731
626.099	29932.692
626.227	29923.856
626.355	29893.587
626.483	29968.317
626.612	29949.317
626.740	30068.356
626.868	29983.529
626.996	30021.692
627.124	30008.163
627.252	29909.596
627.380	30036.125
627.508	29964.135
627.637	29948.606
627.765	30070.894
627.893	30064.048
628.021	30091.721
628.149	29980.125
628.277	30038.317
628.405	29956.856
628.533	29968.808
628.662	30012.731
628.790	30124.692
628.918	30020.779
629.046	30193.317
629.174	30051.952
629.302	30115.952
629.430	30099.817
629.558	30114.288
629.687	30093.827
629.815	30131.644
629.943	30278.000
630.071	30227.288
630.199	30206.644
630.327	30279.702
630.455	30282.510
630.583	30337.327
630.712	30340.058
630.840	30329.933
630.968	30320.327
631.096	30384.654
631.224	30395.500
631.352	30470.721
631.480	30402.442
631.608	30576.288
631.737	30448.385
631.865	30509.798
631.993	30477.221
632.121	30647.865
632.249	30575.202
632.377	30514.923
632.505	30584.385
632.633	30632.990
632.762	30510.135
632.890	30547.413
633.018	30542.433
633.146	30525.625
633.274	30488.615
633.402	30512.163
633.530	30482.923
633.658	30463.308
633.787	30471.135
633.915	30448.990
634.043	30441.096
634.171	30480.750
634.299	30454.856
634.427	30432.096
634.555	30599.471
634.683	30384.471
634.812	30359.288
634.940	30304.106
635.068	30300.923
635.196	30270.471
635.324	30284.904
635.452	30221.010
635.580	30269.519
635.708	30160.385
635.837	30166.010
635.965	30053.606
636.093	30068.279
636.221	29924.923
636.349	29898.856
636.477	29832.731
636.605	29801.346
636.733	29755.933
636.862	29767.462
636.990	29689.385
637.118	29684.346
637.246	29585.202
637.374	29678.048
637.502	29480.000
637.630	29451.135
637.758	29397.058
637.887	29271.183
638.015	29409.471
638.143	29227.625
638.271	29120.971
638.399	29127.519
638.527	29101.904
638.655	29087.067
638.783	29008.760
638.912	28999.250
639.040	28845.962
639.168	28786.375
639.296	28732.067
639.424	28799.808
639.552	28713.875
639.680	28713.587
639.808	28626.817
639.937	28537.135
640.065	28508.779
640.193	28544.731
640.321	28631.481
640.449	28580.058
640.577	28492.683
640.705	28456.510
640.833	28395.250
640.962	28484.067
641.090	28368.144
641.218	28313.375
641.346	28394.731
641.474	28317.471
641.602	28303.913
641.730	28289.019
641.858	28242.231
641.987	28258.404
642.115	28393.221
642.243	28262.288
642.371	28422.106
642.499	28127.904
642.627	28231.712
642.755	28141.558
642.883	28159.000
643.012	28125.067
643.140	28157.808
643.268	28137.875
643.396	28095.462
643.524	28102.827
643.652	28147.183
643.780	28007.452
643.908	28018.529
644.037	28189.240
644.165	28104.606
644.293	28157.933
644.421	27990.615
644.549	28075.375
644.677	28023.827
644.805	27948.125
644.933	27884.250
645.062	28003.202
645.190	28033.981
645.318	27959.548
645.446	27889.394
645.574	27912.712
645.702	27842.731
645.830	27826.808
645.958	27751.510
646.087	27756.202
646.215	27694.760
646.343	27702.163
646.471	27857.635
646.599	27653.779
646.727	27642.510
646.855	27636.875
646.983	27620.500
647.112	27629.721
647.240	27583.394
647.368	27581.250
647.496	27541.269
647.624	27446.673
647.752	27431.096
647.880	27399.712
648.008	27353.490
648.137	27377.038
648.265	27276.981
648.393	27404.394
648.521	27208.894
648.649	27325.317
648.777	27189.529
648.905	27117.173
649.033	27150.769
649.162	27009.788
649.290	26904.548
649.418	26921.356
649.546	27041.183
649.674	26841.163
649.802	26785.000
649.930	26707.654
650.058	26645.894
650.187	26704.019
650.315	26572.981
650.443	26588.577
650.571	26448.798
650.699	26408.279
650.827	26358.500
650.955	26264.606
651.083	26328.337
651.212	26150.413
651.340	26139.365
651.468	26069.635
651.596	26032.423
651.724	26008.990
651.852	25939.750
651.980	25891.913
652.108	25845.894
652.237	25851.077
652.365	25695.038
652.493	25678.904
652.621	25615.038
652.749	25583.615
652.877	25521.202
653.005	25554.288
653.133	25480.750
653.262	25362.904
653.390	25300.702
653.518	25442.817
653.646	25183.817
653.774	25175.240
653.902	25204.721
654.030	25141.712
654.158	25014.346
654.287	25025.596
654.415	24936.327
654.543	24991.087
654.671	24878.269
654.799	24859.548
654.927	24725.288
655.055	24672.154
655.183	24679.683
655.312	24671.529
655.440	24588.048
655.568	24493.279
655.696	24497.442
655.824	24423.163
655.952	24429.712
656.080	24297.577
656.208	24275.971
656.337	24269.798
656.465	24349.337
656.593	24203.798
656.721	24186.904
656.849	24180.125
656.977	23959.481
657.105	23971.125
657.233	23915.538
657.362	23933.250
657.490	23929.606
657.618	23856.981
657.746	23844.404
657.874	23556.567
658.002	23518.510
658.130	23429.529
658.258	23385.692
658.387	23297.125
658.515	23272.442
658.643	23229.971
658.771	23236.846
658.899	23134.202
659.027	23126.481
659.155	23070.683
659.283	23004.654
659.412	22972.567
659.540	22940.856
659.668	22883.510
659.796	22988.077
659.924	22917.087
660.052	23028.365
660.180	22949.192
660.308	22970.019
660.437	22920.462
660.565	22842.673
660.693	22710.154
660.821	22729.385
660.949	22452.663
661.077	22554.231
661.205	22723.481
661.333	22530.298
661.462	22498.952
661.590	22467.115
661.718	22325.038
661.846	22387.452
661.974	22308.048
662.102	22266.740
662.230	22192.587
662.358	22048.240
662.487	22093.712
662.615	22084.923
662.743	22013.779
662.871	22005.163
662.999	21947.423
663.127	21816.356
663.255	21849.606
663.383	21927.952
663.512	21713.327
663.640	21744.923
663.768	21720.212
663.896	21632.356
664.024	21593.837
664.152	21617.462
664.280	21622.740
664.408	21475.875
664.537	21459.981
664.665	21406.183
664.793	21428.558
664.921	21338.154
665.049	21381.615
665.177	21262.933
665.305	21294.029
665.433	21255.135
665.562	21287.760
665.690	21190.394
665.818	21263.827
665.946	21032.644
666.074	21040.058
666.202	20975.606
666.330	20957.663
666.458	21221.894
666.587	20889.385
666.715	20823.942
666.843	20824.673
666.971	20792.510
667.099	20684.885
667.227	20743.202
667.355	20708.077
667.483	20644.635
667.612	20715.308
667.740	20613.702
667.868	20510.500
667.996	20521.519
668.124	20505.962
668.252	20566.673
668.380	20408.077
668.508	20405.125
668.637	20283.885
668.765	20252.135
668.893	20247.644
669.021	20148.654
669.149	20174.038
669.277	20016.885
669.405	20184.471
669.533	20139.173
669.662	19986.856
669.790	19981.529
669.918	19912.308
670.046	20022.481
670.174	19822.250
670.302	19774.865
670.430	19695.394
670.558	19722.269
670.687	19798.077
670.815	19582.635
670.943	19612.365
671.071	19469.875
671.199	19460.442
671.327	19371.231
671.455	19418.346
671.583	19313.298
671.712	19318.125
671.840	19298.510
671.968	19364.538
672.096	19325.654
672.224	19083.250
672.352	19033.587
672.480	18929.808
672.608	18941.808
672.737	18874.423
672.865	18817.837
672.993	18762.029
673.121	18705.010
673.249	18665.510
673.377	18572.260
673.505	18532.971
673.633	18588.471
673.762	18441.000
673.890	18469.375
674.018	18449.038
674.146	18319.798
674.274	18314.144
674.402	18302.942
674.530	18206.250
674.658	18102.394
674.787	18026.971
674.915	18177.788
675.043	17968.471
675.171	17917.500
675.299	17858.625
675.427	17828.567
675.555	17770.154
675.683	17770.115
675.812	17651.010
675.940	17605.856
676.068	17531.010
676.196	17536.827
676.324	17444.058
676.452	17345.077
676.580	17341.971
676.708	17305.587
676.837	17227.808
676.965	17268.962
677.093	17266.606
677.221	17124.029
677.349	17050.817
677.477	17035.183
677.605	16896.144
677.733	16907.000
677.862	16860.923
677.990	16818.115
678.118	16798.000
678.246	16732.635
678.374	16749.077
678.502	16578.817
678.630	16539.596
678.758	16528.471
678.887	16614.683
679.015	16366.048
679.143	16313.260
679.271	16282.442
679.399	16272.106
679.527	16236.683
679.655	16229.442
679.783	16111.260
679.912	16068.952
680.040	16165.875
680.168	15949.510
680.296	15969.788
680.424	15944.942
680.552	15858.683
680.680	15805.500
680.808	15747.962
680.937	15698.048
681.065	15732.769
681.193	15620.125
681.321	15540.212
681.449	15613.606
681.577	15524.404
681.705	15482.962
681.833	15452.452
681.962	15401.644
682.090	15323.240
682.218	15327.038
682.346	15301.702
682.474	15201.846
682.602	15176.096
682.730	15222.442
682.858	15085.846
682.987	15072.404
683.115	15059.413
683.243	15019.433
683.371	15021.327
683.499	14911.106
683.627	14945.519
683.755	14898.548
683.883	14841.481
684.012	14810.952
684.140	14779.644
684.268	14756.308
684.396	14782.827
684.524	14704.538
684.652	14716.452
684.780	14665.356
684.908	14631.663
685.037	14605.385
685.165	14541.558
685.293	14564.154
685.421	14542.529
685.549	14475.462
685.677	14429.442
685.805	14445.423
685.933	14372.298
686.062	14344.423
686.190	14293.933
686.318	14260.346
686.446	14202.856
686.574	14182.683
686.702	14197.519
686.830	14120.942
686.958	14180.000
687.087	14041.288
687.215	14020.087
687.343	13967.413
687.471	14115.942
687.599	13852.990
687.727	13847.106
687.855	13802.587
687.983	13747.827
688.112	13837.558
688.240	13746.125
688.368	13726.356
688.496	13689.712
688.624	13553.442
688.752	13709.337
688.880	13564.452
689.008	13513.933
689.137	13484.962
689.265	13453.558
689.393	13401.885
689.521	13377.808
689.649	13450.452
689.777	13343.846
689.905	13410.298
690.033	13227.375
690.162	13199.029
690.290	13212.192
690.418	13135.875
690.546	13169.385
690.674	13121.077
690.802	13106.529
690.930	13039.760
691.058	13029.385
691.187	12937.673
691.315	12901.221
691.443	12907.990
691.571	12859.115
691.699	12771.260
691.827	12742.788
691.955	12700.692
692.083	12644.769
692.212	12664.673
692.340	12632.154
692.468	12628.010
692.596	12574.779
692.724	12477.933
692.852	12560.490
692.980	12521.837
693.108	12491.029
693.237	12375.769
693.365	12339.067
693.493	12326.683
693.621	12310.394
693.749	12210.029
693.877	12225.510
694.005	12094.058
694.133	12085.885
694.262	12115.510
694.390	11972.510
694.518	11975.519
694.646	11961.288
694.774	11874.731
694.902	11859.702
695.030	11836.202
695.158	11769.231
695.287	11720.500
695.415	11721.481
695.543	11667.365
695.671	11585.673
695.799	11669.163
695.927	11555.567
696.055	11536.827
696.183	11439.885
696.312	11572.885
696.440	11446.519
696.568	11424.913
696.696	11270.817
696.824	11211.058
696.952	11174.933
697.080	11170.087
697.208	11095.740
697.337	11077.760
697.465	11012.558
697.593	10971.817
697.721	11056.875
697.849	10882.077
697.977	10909.788
698.105	10929.404
698.233	10817.212
698.362	10751.308
698.490	10862.615
698.618	10665.644
698.746	10633.856
698.874	10683.163
699.002	10616.635
699.130	10594.529
699.258	10518.529
699.387	10446.875
699.515	10453.692
699.643	10424.394
699.771	10456.298
699.899	10325.423
700.027	10248.279
700.155	10278.433
700.283	10161.663
700.412	10162.538
700.540	10180.115
700.668	10191.192
700.796	10054.154
700.924	10041.817
701.052	10030.413
701.180	10024.644
701.308	9885.163
701.437	9888.135
701.565	9843.788
701.693	9864.990
701.821	9978.308
701.949	9752.558
702.077	9744.644
702.205	9767.192
702.333	9659.644
702.462	9620.827
702.590	9632.019
702.718	9529.913
702.846	9707.154
702.974	9477.750
703.102	9451.740
703.230	9448.288
703.358	9334.067
703.487	9324.625
703.615	9304.808
703.743	9260.952
703.871	9241.538
703.999	9183.327
704.127	9126.490
704.255	9099.817
704.383	9126.769
704.512	9158.644
704.640	9059.058
704.768	9134.462
704.896	8967.327
705.024	8877.913
705.152	8907.423
705.280	8920.010
705.408	8803.731
705.537	8719.712
705.665	8765.471
705.793	8708.894
705.921	8662.269
706.049	8588.538
706.177	8609.183
706.305	8541.433
706.433	8571.750
706.562	8508.712
706.690	8481.404
706.818	8481.308
706.946	8371.067
707.074	8306.990
707.202	8292.769
707.330	8250.885
707.458	8245.423
707.587	8209.433
707.715	8214.019
707.843	8208.385
707.971	8163.702
708.099	8033.490
708.227	7995.904
708.355	8008.125
708.483	7979.875
708.612	7951.279
708.740	7860.596
708.868	7842.144
708.996	7914.625
709.124	7858.462
709.252	7804.433
709.380	7802.750
709.508	7725.048
709.637	7753.048
709.765	7711.529
709.893	7696.269
710.021	7613.760
710.149	7706.913
710.277	7552.817
710.405	7537.510
710.533	7552.308
710.662	7480.442
710.790	7584.183
710.918	7430.471
711.046	7459.558
711.174	7369.750
711.302	7394.558
711.430	7339.452
711.558	7343.192
711.687	7268.808
711.815	7220.212
711.943	7193.385
712.071	7188.375
712.199	7197.760
712.327	7231.442
712.455	7090.933
712.583	7278.702
712.712	7101.260
712.840	7134.115
712.968	7034.625
713.096	6995.865
713.224	6976.981
713.352	6941.067
713.480	6882.644
713.608	6882.192
713.737	6830.385
713.865	6889.923
713.993	6814.288
714.121	6825.760
714.249	6728.154
714.377	6719.375
714.505	6684.519
714.633	6689.346
714.762	6640.962
714.890	6638.644
715.018	6610.615
715.146	6618.433
715.274	6554.577
715.402	6536.337
715.530	6480.452
715.658	6538.279
715.787	6484.240
715.915	6581.260
716.043	6420.942
716.171	6561.279
716.299	6349.490
716.427	6425.317
716.555	6331.923
716.683	6295.240
716.812	6288.048
716.940	6266.606
717.068	6211.471
717.196	6389.692
717.324	6232.548
717.452	6197.298
717.580	6208.779
717.708	6116.163
717.837	6098.125
717.965	6121.442
718.093	6076.135
718.221	6072.481
718.349	6125.298
718.477	6002.808
718.605	6094.327
718.733	6000.173
718.862	6002.096
718.990	5927.221
719.118	5955.029
719.246	5877.538
719.374	5843.692
719.502	5872.548
719.630	5972.769
719.758	5775.837
719.887	5771.913
720.015	5778.529
720.143	5795.260
720.271	5668.029
