70_70_90_Pol_at_750.00nm_cut_at_1179.00Y_01.dat
03.07.2023
11:08:26
cut middle at Y: 1179.00
top cursor: 1231 down cursor: 1127 mean of: 104 lines , 2560 datapoints
wavelength(nm)	intensity[arb. units]
585.996	9845.673
586.124	9656.615
586.252	9646.529
586.380	9694.433
586.508	9695.788
586.637	9770.394
586.765	9748.375
586.893	9787.394
587.021	9790.606
587.149	9781.221
587.277	9808.279
587.405	9802.298
587.533	9855.625
587.662	9919.221
587.790	9839.365
587.918	9847.635
588.046	9836.923
588.174	9879.808
588.302	9855.558
588.430	9854.933
588.558	9849.163
588.687	9898.067
588.815	9898.087
588.943	9895.087
589.071	9884.019
589.199	9866.394
589.327	9876.356
589.455	9960.202
589.583	9886.606
589.712	9884.971
589.840	9842.135
589.968	9884.135
590.096	9902.490
590.224	9866.212
590.352	9935.029
590.480	9866.260
590.608	9880.115
590.737	9905.933
590.865	9981.260
590.993	9869.423
591.121	9897.837
591.249	9881.000
591.377	9878.490
591.505	9975.279
591.633	9878.913
591.762	9881.308
591.890	9893.856
592.018	9989.471
592.146	9892.288
592.274	9909.442
592.402	9874.365
592.530	10104.827
592.658	9970.279
592.787	9983.038
592.915	10018.240
593.043	9913.154
593.171	9993.154
593.299	9979.500
593.427	9948.423
593.555	9998.058
593.683	10017.952
593.812	10029.798
593.940	10043.212
594.068	10064.394
594.196	10046.298
594.324	10062.654
594.452	10241.577
594.580	10111.942
594.708	10184.625
594.837	10163.337
594.965	10220.856
595.093	10159.519
595.221	10204.192
595.349	10225.096
595.477	10256.538
595.605	10268.423
595.733	10259.212
595.862	10280.317
595.990	10315.962
596.118	10361.385
596.246	10408.394
596.374	10335.096
596.502	10367.731
596.630	10391.519
596.758	10368.433
596.887	10358.567
597.015	10385.087
597.143	10387.173
597.271	10389.010
597.399	10435.000
597.527	10410.952
597.655	10428.212
597.783	10437.481
597.912	10402.750
598.040	10439.279
598.168	10411.192
598.296	10366.413
598.424	10579.096
598.552	10397.596
598.680	10431.096
598.808	10472.029
598.937	10430.212
599.065	10429.288
599.193	10476.644
599.321	10462.269
599.449	10401.846
599.577	10425.173
599.705	10429.048
599.833	10385.000
599.962	10310.673
600.090	10394.356
600.218	10378.865
600.346	10376.442
600.474	10373.308
600.602	10334.087
600.730	10336.750
600.858	10347.327
600.987	10414.260
601.115	10356.962
601.243	10427.385
601.371	10468.606
601.499	10441.990
601.627	10391.798
601.755	10382.981
601.883	10410.115
602.012	10322.933
602.140	10465.587
602.268	10426.433
602.396	10540.721
602.524	10431.231
602.652	10495.567
602.780	10511.567
602.908	10517.615
603.037	10583.038
603.165	10572.837
603.293	10590.260
603.421	10598.106
603.549	10558.875
603.677	10655.500
603.805	10626.067
603.933	10659.971
604.062	10732.904
604.190	10762.481
604.318	10773.269
604.446	10760.567
604.574	10839.154
604.702	10848.394
604.830	10790.769
604.958	10809.721
605.087	10894.231
605.215	10903.115
605.343	11016.558
605.471	11002.587
605.599	10983.587
605.727	11086.856
605.855	11054.423
605.983	11086.462
606.112	11122.240
606.240	11142.192
606.368	11152.462
606.496	11088.298
606.624	11225.606
606.752	11156.202
606.880	11230.856
607.008	11179.115
607.137	11168.779
607.265	11327.558
607.393	11259.894
607.521	11365.279
607.649	11218.192
607.777	11286.788
607.905	11305.404
608.033	11237.500
608.162	11263.192
608.290	11270.567
608.418	11382.913
608.546	11316.125
608.674	11326.250
608.802	11275.923
608.930	11276.337
609.058	11238.442
609.187	11250.135
609.315	11252.846
609.443	11226.058
609.571	11327.663
609.699	11193.615
609.827	11285.635
609.955	11214.462
610.083	11200.000
610.212	11195.346
610.340	11133.788
610.468	11173.260
610.596	11175.356
610.724	11126.846
610.852	11228.010
610.980	11183.298
611.108	11119.865
611.237	11138.827
611.365	11157.375
611.493	11116.413
611.621	11112.125
611.749	11157.279
611.877	11204.000
612.005	11148.192
612.133	11175.740
612.262	11166.192
612.390	11240.663
612.518	11226.577
612.646	11152.288
612.774	11257.990
612.902	11246.462
613.030	11196.192
613.158	11206.625
613.287	11299.481
613.415	11183.760
613.543	11244.933
613.671	11226.212
613.799	11244.692
613.927	11253.144
614.055	11266.933
614.183	11261.154
614.312	11250.846
614.440	11428.125
614.568	11329.221
614.696	11374.058
614.824	11318.558
614.952	11407.452
615.080	11378.192
615.208	11426.038
615.337	11494.519
615.465	11392.192
615.593	11466.394
615.721	11444.144
615.849	11577.260
615.977	11526.019
616.105	11500.163
616.233	11530.875
616.362	11558.731
616.490	11542.288
616.618	11588.702
616.746	11693.885
616.874	11641.385
617.002	11643.298
617.130	11649.106
617.258	11613.481
617.387	11596.558
617.515	11658.923
617.643	11639.933
617.771	11724.000
617.899	11667.769
618.027	11711.683
618.155	11716.192
618.283	11710.337
618.412	11697.942
618.540	11778.125
618.668	11709.452
618.796	11746.567
618.924	11689.683
619.052	11748.731
619.180	11715.173
619.308	11732.779
619.437	11688.538
619.565	11706.375
619.693	11685.269
619.821	11709.760
619.949	11673.298
620.077	11703.721
620.205	11753.731
620.333	11732.404
620.462	11659.288
620.590	11704.288
620.718	11724.298
620.846	11722.365
620.974	11724.298
621.102	11736.269
621.230	11702.279
621.358	11842.654
621.487	11687.750
621.615	11735.923
621.743	11639.183
621.871	11761.183
621.999	11630.798
622.127	11673.702
622.255	11626.279
622.383	11599.788
622.512	11621.250
622.640	11586.106
622.768	11646.923
622.896	11690.288
623.024	11652.163
623.152	11625.490
623.280	11725.337
623.408	11624.500
623.537	11666.423
623.665	11582.692
623.793	11653.442
623.921	11651.885
624.049	11608.721
624.177	11636.721
624.305	11590.288
624.433	11641.971
624.562	11588.788
624.690	11736.971
624.818	11523.587
624.946	11562.106
625.074	11540.558
625.202	11525.096
625.330	11556.865
625.458	11652.702
625.587	11525.106
625.715	11625.587
625.843	11561.231
625.971	11589.942
626.099	11594.606
626.227	11594.413
626.355	11500.058
626.483	11610.288
626.612	11527.904
626.740	11571.587
626.868	11566.183
626.996	11625.529
627.124	11575.654
627.252	11580.269
627.380	11556.596
627.508	11519.971
627.637	11580.865
627.765	11575.202
627.893	11604.962
628.021	11664.038
628.149	11567.231
628.277	11639.481
628.405	11569.538
628.533	11566.673
628.662	11608.260
628.790	11687.760
628.918	11591.913
629.046	11731.683
629.174	11611.760
629.302	11605.933
629.430	11555.529
629.558	11611.567
629.687	11530.654
629.815	11627.635
629.943	11718.356
630.071	11663.462
630.199	11631.558
630.327	11665.173
630.455	11677.288
630.583	11648.808
630.712	11658.125
630.840	11651.731
630.968	11653.558
631.096	11688.904
631.224	11662.712
631.352	11776.654
631.480	11663.808
631.608	11839.846
631.737	11651.894
631.865	11802.923
631.993	11769.490
632.121	11873.817
632.249	11750.923
632.377	11727.846
632.505	11680.481
632.633	11761.942
632.762	11692.615
632.890	11705.202
633.018	11722.529
633.146	11689.231
633.274	11651.048
633.402	11710.837
633.530	11680.942
633.658	11650.981
633.787	11687.058
633.915	11678.135
634.043	11674.644
634.171	11656.212
634.299	11679.837
634.427	11632.413
634.555	11844.798
634.683	11626.433
634.812	11655.317
634.940	11596.673
635.068	11609.240
635.196	11581.769
635.324	11548.827
635.452	11567.904
635.580	11634.058
635.708	11524.442
635.837	11560.346
635.965	11536.548
636.093	11481.577
636.221	11469.404
636.349	11410.163
636.477	11419.452
636.605	11475.442
636.733	11387.798
636.862	11357.904
636.990	11350.856
637.118	11355.856
637.246	11300.471
637.374	11424.288
637.502	11251.144
637.630	11237.087
637.758	11222.923
637.887	11166.269
638.015	11289.365
638.143	11192.760
638.271	11133.740
638.399	11133.000
638.527	11083.663
638.655	11071.135
638.783	11074.375
638.912	11116.240
639.040	11015.837
639.168	10943.817
639.296	10935.260
639.424	11033.827
639.552	10975.058
639.680	10995.990
639.808	10943.038
639.937	10913.817
640.065	10862.308
640.193	10886.692
640.321	10931.471
640.449	10922.038
640.577	10860.740
640.705	10861.587
640.833	10830.346
640.962	10908.673
641.090	10789.452
641.218	10819.779
641.346	10878.702
641.474	10815.750
641.602	10786.471
641.730	10754.923
641.858	10730.471
641.987	10762.442
642.115	10923.712
642.243	10769.615
642.371	10901.654
642.499	10729.558
642.627	10819.683
642.755	10739.029
642.883	10751.115
643.012	10731.269
643.140	10778.933
643.268	10778.952
643.396	10683.529
643.524	10702.471
643.652	10784.067
643.780	10692.567
643.908	10649.913
644.037	10765.010
644.165	10756.683
644.293	10844.192
644.421	10677.971
644.549	10710.596
644.677	10709.173
644.805	10646.519
644.933	10634.500
645.062	10665.760
645.190	10815.952
645.318	10693.173
645.446	10626.356
645.574	10611.529
645.702	10629.500
645.830	10631.981
645.958	10598.125
646.087	10560.000
646.215	10519.183
646.343	10568.087
646.471	10677.106
646.599	10536.404
646.727	10502.827
646.855	10525.308
646.983	10510.183
647.112	10581.192
647.240	10493.346
647.368	10534.087
647.496	10494.500
647.624	10458.942
647.752	10434.481
647.880	10391.010
648.008	10406.433
648.137	10456.962
648.265	10376.740
648.393	10474.923
648.521	10385.038
648.649	10495.712
648.777	10439.798
648.905	10358.962
649.033	10404.615
649.162	10278.567
649.290	10197.885
649.418	10265.587
649.546	10415.356
649.674	10205.212
649.802	10196.356
649.930	10186.654
650.058	10127.740
650.187	10184.519
650.315	10096.769
650.443	10131.192
650.571	10061.990
650.699	10042.885
650.827	10042.971
650.955	9996.510
651.083	10032.721
651.212	9949.538
651.340	9968.087
651.468	9905.317
651.596	9920.808
651.724	9921.240
651.852	9840.827
651.980	9848.548
652.108	9845.644
652.237	9806.019
652.365	9782.019
652.493	9753.279
652.621	9724.731
652.749	9730.490
652.877	9687.279
653.005	9716.125
653.133	9657.788
653.262	9637.356
653.390	9611.288
653.518	9736.894
653.646	9565.288
653.774	9535.692
653.902	9602.308
654.030	9522.885
654.158	9494.423
654.287	9504.221
654.415	9475.663
654.543	9493.644
654.671	9438.279
654.799	9427.519
654.927	9406.894
655.055	9331.625
655.183	9349.096
655.312	9309.615
655.440	9289.577
655.568	9287.510
655.696	9335.548
655.824	9251.221
655.952	9231.327
656.080	9199.115
656.208	9210.067
656.337	9214.096
656.465	9335.788
656.593	9163.769
656.721	9219.769
656.849	9259.365
656.977	8999.433
657.105	9068.731
657.233	9070.212
657.362	9120.500
657.490	9057.663
657.618	9066.990
657.746	9059.317
657.874	8931.740
658.002	8930.077
658.130	8850.490
658.258	8855.577
658.387	8815.058
658.515	8778.510
658.643	8751.519
658.771	8818.606
658.899	8718.510
659.027	8758.654
659.155	8745.990
659.283	8692.067
659.412	8674.231
659.540	8654.952
659.668	8677.462
659.796	8735.240
659.924	8673.587
660.052	8731.625
660.180	8627.923
660.308	8725.567
660.437	8734.500
660.565	8627.433
660.693	8533.827
660.821	8706.202
660.949	8518.558
661.077	8538.615
661.205	8656.231
661.333	8521.058
661.462	8490.942
661.590	8594.125
661.718	8474.837
661.846	8470.692
661.974	8464.375
662.102	8426.558
662.230	8436.606
662.358	8332.942
662.487	8384.837
662.615	8350.952
662.743	8374.769
662.871	8347.394
662.999	8276.212
663.127	8260.817
663.255	8256.635
663.383	8373.779
663.512	8169.221
663.640	8237.596
663.768	8249.885
663.896	8156.654
664.024	8178.163
664.152	8175.192
664.280	8204.817
664.408	8128.587
664.537	8111.067
664.665	8139.788
664.793	8109.827
664.921	8063.385
665.049	8121.163
665.177	8015.702
665.305	8032.750
665.433	8025.279
665.562	8171.115
665.690	8030.442
665.818	8158.885
665.946	7957.962
666.074	7932.462
666.202	7945.019
666.330	7884.250
666.458	8288.327
666.587	7876.365
666.715	7887.837
666.843	7820.269
666.971	7866.125
667.099	7862.712
667.227	7890.096
667.355	7888.308
667.483	7804.625
667.612	7849.077
667.740	7797.327
667.868	7765.894
667.996	7744.365
668.124	7777.731
668.252	7850.904
668.380	7718.567
668.508	7712.115
668.637	7702.058
668.765	7702.250
668.893	7698.971
669.021	7602.779
669.149	7706.981
669.277	7549.385
669.405	7684.625
669.533	7669.413
669.662	7572.885
669.790	7561.087
669.918	7618.654
670.046	7703.471
670.174	7482.163
670.302	7484.904
670.430	7454.471
670.558	7510.375
670.687	7631.731
670.815	7431.712
670.943	7487.519
671.071	7345.760
671.199	7328.481
671.327	7366.452
671.455	7386.048
671.583	7332.606
671.712	7307.298
671.840	7365.750
671.968	7445.308
672.096	7401.096
672.224	7229.779
672.352	7204.308
672.480	7150.635
672.608	7218.221
672.737	7147.510
672.865	7093.212
672.993	7083.510
673.121	7096.462
673.249	7054.423
673.377	7008.125
673.505	6989.885
673.633	7051.558
673.762	6988.413
673.890	6977.231
674.018	6991.654
674.146	6932.346
674.274	6904.442
674.402	6957.538
674.530	6899.413
674.658	6836.394
674.787	6841.087
674.915	6974.462
675.043	6825.087
675.171	6825.096
675.299	6763.038
675.427	6712.433
675.555	6704.327
675.683	6742.029
675.812	6665.981
675.940	6651.779
676.068	6608.519
676.196	6660.846
676.324	6596.933
676.452	6533.971
676.580	6507.269
676.708	6509.683
676.837	6493.173
676.965	6587.904
677.093	6623.760
677.221	6500.721
677.349	6441.240
677.477	6477.288
677.605	6364.346
677.733	6373.346
677.862	6383.865
677.990	6345.548
678.118	6385.375
678.246	6320.856
678.374	6359.048
678.502	6269.500
678.630	6230.587
678.758	6226.933
678.887	6365.221
679.015	6142.096
679.143	6120.135
679.271	6125.038
679.399	6120.500
679.527	6134.385
679.655	6167.962
679.783	6040.587
679.912	6049.192
680.040	6219.192
680.168	6017.567
680.296	6043.615
680.424	5990.221
680.552	6007.471
680.680	5949.798
680.808	5907.548
680.937	5865.356
681.065	5935.058
681.193	5861.962
681.321	5853.106
681.449	5881.135
681.577	5827.240
681.705	5809.519
681.833	5839.779
681.962	5799.144
682.090	5759.394
682.218	5772.500
682.346	5791.894
682.474	5707.010
682.602	5708.769
682.730	5733.875
682.858	5670.337
682.987	5684.577
683.115	5701.135
683.243	5659.913
683.371	5641.990
683.499	5601.856
683.627	5655.875
683.755	5583.673
683.883	5561.510
684.012	5608.731
684.140	5544.692
684.268	5548.731
684.396	5605.135
684.524	5506.231
684.652	5546.269
684.780	5544.779
684.908	5530.760
685.037	5525.212
685.165	5491.385
685.293	5553.846
685.421	5483.038
685.549	5473.779
685.677	5407.192
685.805	5479.923
685.933	5428.442
686.062	5412.202
686.190	5378.365
686.318	5393.048
686.446	5358.510
686.574	5321.529
686.702	5383.933
686.830	5292.904
686.958	5394.644
687.087	5273.452
687.215	5300.692
687.343	5281.894
687.471	5422.404
687.599	5220.125
687.727	5181.596
687.855	5180.202
687.983	5128.885
688.112	5226.481
688.240	5147.779
688.368	5190.125
688.496	5115.269
688.624	5095.135
688.752	5260.385
688.880	5124.125
689.008	5093.038
689.137	5077.894
689.265	5007.423
689.393	5031.404
689.521	5028.327
689.649	5108.837
689.777	5048.317
689.905	5083.144
690.033	4947.462
690.162	4959.577
690.290	4981.394
690.418	4917.413
690.546	4972.577
690.674	4961.837
690.802	4981.462
690.930	4916.577
691.058	4889.529
691.187	4862.529
691.315	4842.481
691.443	4814.394
691.571	4862.221
691.699	4768.317
691.827	4777.894
691.955	4777.212
692.083	4745.279
692.212	4755.462
692.340	4731.183
692.468	4769.837
692.596	4742.615
692.724	4708.644
692.852	4741.933
692.980	4721.144
693.108	4723.971
693.237	4635.019
693.365	4638.087
693.493	4617.760
693.621	4615.769
693.749	4569.894
693.877	4626.058
694.005	4541.375
694.133	4537.462
694.262	4601.096
694.390	4489.663
694.518	4507.721
694.646	4504.471
694.774	4439.971
694.902	4455.298
695.030	4462.231
695.158	4439.548
695.287	4419.894
695.415	4415.712
695.543	4404.846
695.671	4355.769
695.799	4477.019
695.927	4357.635
696.055	4349.365
696.183	4304.587
696.312	4470.933
696.440	4316.096
696.568	4306.346
696.696	4225.135
696.824	4204.019
696.952	4189.163
697.080	4213.423
697.208	4139.846
697.337	4173.644
697.465	4162.760
697.593	4114.481
697.721	4208.644
697.849	4093.144
697.977	4124.769
698.105	4158.106
698.233	4083.577
698.362	4027.308
698.490	4149.615
698.618	3993.490
698.746	3982.365
698.874	4055.413
699.002	4008.327
699.130	4011.731
699.258	3969.587
699.387	3901.452
699.515	3950.010
699.643	3941.298
699.771	4005.567
699.899	3886.673
700.027	3835.635
700.155	3907.933
700.283	3782.885
700.412	3807.654
700.540	3838.000
700.668	3865.875
700.796	3779.394
700.924	3816.721
701.052	3800.452
701.180	3791.087
701.308	3722.077
701.437	3679.529
701.565	3682.740
701.693	3728.654
701.821	3847.490
701.949	3632.231
702.077	3654.356
702.205	3723.413
702.333	3616.904
702.462	3605.644
702.590	3651.327
702.718	3539.212
702.846	3724.702
702.974	3515.231
703.102	3507.567
703.230	3550.394
703.358	3493.183
703.487	3487.029
703.615	3482.673
703.743	3455.750
703.871	3445.635
703.999	3420.865
704.127	3431.413
704.255	3377.750
704.383	3411.596
704.512	3469.154
704.640	3429.750
704.768	3477.010
704.896	3336.048
705.024	3303.740
705.152	3316.952
705.280	3380.894
705.408	3269.712
705.537	3271.798
705.665	3277.817
705.793	3245.490
705.921	3241.760
706.049	3197.269
706.177	3237.308
706.305	3159.952
706.433	3236.058
706.562	3196.260
706.690	3198.865
706.818	3194.817
706.946	3114.692
707.074	3109.000
707.202	3069.683
707.330	3096.106
707.458	3075.144
707.587	3063.048
707.715	3078.452
707.843	3083.327
707.971	3075.846
708.099	2994.981
708.227	2993.250
708.355	2990.394
708.483	2961.260
708.612	2990.058
708.740	2932.913
708.868	2937.404
708.996	3005.894
709.124	2986.221
709.252	2946.731
709.380	2957.202
709.508	2902.125
709.637	2911.856
709.765	2881.731
709.893	2900.740
710.021	2856.538
710.149	2968.385
710.277	2804.683
710.405	2825.442
710.533	2842.144
710.662	2787.808
710.790	2936.577
710.918	2760.846
711.046	2819.683
711.174	2777.587
711.302	2786.731
711.430	2745.692
711.558	2806.452
711.687	2774.346
711.815	2740.500
711.943	2697.644
712.071	2712.952
712.199	2755.817
712.327	2807.260
712.455	2680.154
712.583	2853.019
712.712	2707.163
712.840	2726.067
712.968	2672.942
713.096	2661.365
713.224	2642.856
713.352	2631.288
713.480	2612.385
713.608	2595.625
713.737	2592.846
713.865	2643.615
713.993	2607.769
714.121	2596.635
714.249	2583.673
714.377	2578.260
714.505	2567.548
714.633	2561.587
714.762	2562.740
714.890	2557.240
715.018	2565.558
715.146	2582.663
715.274	2536.875
715.402	2523.625
715.530	2540.625
715.658	2534.087
715.787	2521.433
715.915	2545.644
716.043	2508.096
716.171	2519.058
716.299	2493.904
716.427	2513.702
716.555	2479.413
716.683	2475.846
716.812	2471.846
716.940	2472.087
717.068	2450.923
717.196	2488.837
717.324	2455.596
717.452	2437.135
717.580	2456.260
717.708	2410.923
717.837	2413.606
717.965	2392.712
718.093	2412.779
718.221	2393.183
718.349	2386.644
718.477	2392.913
718.605	2383.558
718.733	2376.279
718.862	2361.058
718.990	2364.923
719.118	2367.702
719.246	2336.673
719.374	2324.442
719.502	2307.798
719.630	2311.269
719.758	2292.981
719.887	2287.452
720.015	2280.808
720.143	2279.058
720.271	2259.981
720.399	2276.019
720.527	2254.144
720.655	2256.106
720.783	2250.933
720.912	2227.144
721.040	2211.712
721.168	2224.981
721.296	2183.462
721.424	2208.692
721.552	2189.510
721.680	2179.721
721.808	2190.558
721.937	2166.394
722.065	2155.135
722.193	2162.279
722.321	2156.712
722.449	2147.144
722.577	2123.846
722.705	2109.990
722.833	2098.490
722.962	2099.798
723.090	2081.240
723.218	2052.500
723.346	2074.952
723.474	2074.481
