sample5h_at_750.00nm_cut_at_1060.50Y_01.dat
19.06.2023
11:08:22
cut middle at Y: 1060.50
top cursor: 1109 down cursor: 1012 mean of: 97 lines , 2560 datapoints
wavelength(nm)	intensity[arb. units]
585.996	836.247
586.124	813.959
586.252	819.340
586.380	811.196
586.508	819.402
586.637	812.876
586.765	825.639
586.893	823.361
587.021	827.969
587.149	831.021
587.277	828.742
587.405	829.845
587.533	828.660
587.662	831.423
587.790	843.701
587.918	827.814
588.046	827.515
588.174	829.485
588.302	831.866
588.430	834.536
588.558	839.948
588.687	841.474
588.815	848.711
588.943	858.887
589.071	844.887
589.199	850.495
589.327	856.588
589.455	847.763
589.583	857.309
589.712	853.454
589.840	850.680
589.968	849.485
590.096	857.433
590.224	862.495
590.352	859.742
590.480	864.577
590.608	866.247
590.737	857.454
590.865	862.278
590.993	871.753
591.121	861.464
591.249	862.588
591.377	865.072
591.505	858.423
591.633	864.392
591.762	874.567
591.890	869.144
592.018	872.144
592.146	876.340
592.274	870.959
592.402	873.918
592.530	874.701
592.658	881.515
592.787	879.433
592.915	872.722
593.043	884.567
593.171	872.433
593.299	882.309
593.427	884.907
593.555	872.010
593.683	879.072
593.812	877.691
593.940	887.454
594.068	879.835
594.196	892.381
594.324	888.495
594.452	896.124
594.580	889.938
594.708	894.567
594.837	890.608
594.965	902.330
595.093	907.680
595.221	901.814
595.349	898.268
595.477	901.247
595.605	908.144
595.733	921.134
595.862	910.062
595.990	905.918
596.118	915.309
596.246	920.485
596.374	910.351
596.502	915.773
596.630	928.381
596.758	925.990
596.887	924.464
597.015	924.794
597.143	913.742
597.271	925.186
597.399	929.969
597.527	932.247
597.655	937.309
597.783	929.608
597.912	917.320
598.040	925.423
598.168	929.052
598.296	925.330
598.424	923.505
598.552	934.598
598.680	934.124
598.808	936.330
598.937	933.763
599.065	932.124
599.193	930.794
599.321	921.278
599.449	938.464
599.577	925.577
599.705	934.175
599.833	936.691
599.962	937.134
600.090	938.567
600.218	934.773
600.346	945.155
600.474	948.093
600.602	942.928
600.730	938.711
600.858	942.979
600.987	941.134
601.115	941.649
601.243	944.165
601.371	948.619
601.499	949.773
601.627	941.804
601.755	959.691
601.883	952.433
602.012	965.660
602.140	951.351
602.268	963.505
602.396	954.299
602.524	958.505
602.652	972.897
602.780	967.433
602.908	967.763
603.037	971.649
603.165	983.629
603.293	978.887
603.421	973.175
603.549	978.330
603.677	986.206
603.805	987.701
603.933	997.000
604.062	995.021
604.190	998.371
604.318	1000.423
604.446	1002.680
604.574	993.794
604.702	994.433
604.830	1011.907
604.958	1018.340
605.087	1023.577
605.215	1017.990
605.343	1022.093
605.471	1032.845
605.599	1028.959
605.727	1020.175
605.855	1017.577
605.983	1022.557
606.112	1033.433
606.240	1044.144
606.368	1042.443
606.496	1040.825
606.624	1036.299
606.752	1044.278
606.880	1036.278
607.008	1042.773
607.137	1054.371
607.265	1039.948
607.393	1058.866
607.521	1041.649
607.649	1044.216
607.777	1041.887
607.905	1049.258
608.033	1056.454
608.162	1048.835
608.290	1051.052
608.418	1058.216
608.546	1047.948
608.674	1061.485
608.802	1058.907
608.930	1062.691
609.058	1054.959
609.187	1047.691
609.315	1043.845
609.443	1057.907
609.571	1042.845
609.699	1048.412
609.827	1052.835
609.955	1059.062
610.083	1047.691
610.212	1044.753
610.340	1051.979
610.468	1065.557
610.596	1054.876
610.724	1071.670
610.852	1053.423
610.980	1053.495
611.108	1064.412
611.237	1058.474
611.365	1068.433
611.493	1063.206
611.621	1065.320
611.749	1067.918
611.877	1077.340
612.005	1071.443
612.133	1068.866
612.262	1072.649
612.390	1084.876
612.518	1079.175
612.646	1070.485
612.774	1079.392
612.902	1091.763
613.030	1093.402
613.158	1079.701
613.287	1095.412
613.415	1095.526
613.543	1099.619
613.671	1099.526
613.799	1090.000
613.927	1102.165
614.055	1100.268
614.183	1106.361
614.312	1102.680
614.440	1098.103
614.568	1106.866
614.696	1116.227
614.824	1110.351
614.952	1116.371
615.080	1118.237
615.208	1121.567
615.337	1120.000
615.465	1111.856
615.593	1128.619
615.721	1126.330
615.849	1128.340
615.977	1125.216
616.105	1124.474
616.233	1129.330
616.362	1146.103
616.490	1131.072
616.618	1141.670
616.746	1133.876
616.874	1147.299
617.002	1136.680
617.130	1153.608
617.258	1141.866
617.387	1136.402
617.515	1142.928
617.643	1145.340
617.771	1154.093
617.899	1153.567
618.027	1145.660
618.155	1154.722
618.283	1158.639
618.412	1155.196
618.540	1160.124
618.668	1158.876
618.796	1151.649
618.924	1166.753
619.052	1173.515
619.180	1158.784
619.308	1169.392
619.437	1158.021
619.565	1173.103
619.693	1158.299
619.821	1170.784
619.949	1169.361
620.077	1169.351
620.205	1183.835
620.333	1166.299
620.462	1186.639
620.590	1182.412
620.718	1194.227
620.846	1175.237
620.974	1181.134
621.102	1179.979
621.230	1190.144
621.358	1197.320
621.487	1181.990
621.615	1188.062
621.743	1199.515
621.871	1198.196
621.999	1184.299
622.127	1195.887
622.255	1200.598
622.383	1194.392
622.512	1193.515
622.640	1192.216
622.768	1195.536
622.896	1198.443
623.024	1199.144
623.152	1211.423
623.280	1194.330
623.408	1195.175
623.537	1199.113
623.665	1207.216
623.793	1209.732
623.921	1200.227
624.049	1205.361
624.177	1209.474
624.305	1206.103
624.433	1200.041
624.562	1209.887
624.690	1203.938
624.818	1218.124
624.946	1213.443
625.074	1204.495
625.202	1214.784
625.330	1210.588
625.458	1213.289
625.587	1211.938
625.715	1215.979
625.843	1213.443
625.971	1214.732
626.099	1214.526
626.227	1229.402
626.355	1207.010
626.483	1224.536
626.612	1213.361
626.740	1219.948
626.868	1229.588
626.996	1220.320
627.124	1217.794
627.252	1215.742
627.380	1222.031
627.508	1223.371
627.637	1218.598
627.765	1238.330
627.893	1226.196
628.021	1220.309
628.149	1221.856
628.277	1227.742
628.405	1232.979
628.533	1226.784
628.662	1220.010
628.790	1232.608
628.918	1230.835
629.046	1231.990
629.174	1239.773
629.302	1233.186
629.430	1242.165
629.558	1245.062
629.687	1249.258
629.815	1244.784
629.943	1242.216
630.071	1243.093
630.199	1241.454
630.327	1246.186
630.455	1243.505
630.583	1245.577
630.712	1262.412
630.840	1248.412
630.968	1265.144
631.096	1263.701
631.224	1262.670
631.352	1255.629
631.480	1258.103
631.608	1264.711
631.737	1263.433
631.865	1280.392
631.993	1259.144
632.121	1273.402
632.249	1269.773
632.377	1282.763
632.505	1260.278
632.633	1266.227
632.762	1270.454
632.890	1278.402
633.018	1273.804
633.146	1276.619
633.274	1276.856
633.402	1270.309
633.530	1278.670
633.658	1288.464
633.787	1268.186
633.915	1277.072
634.043	1276.979
634.171	1276.557
634.299	1278.598
634.427	1268.639
634.555	1282.309
634.683	1269.588
634.812	1268.206
634.940	1279.567
635.068	1267.412
635.196	1282.660
635.324	1280.598
635.452	1276.825
635.580	1274.619
635.708	1284.649
635.837	1268.670
635.965	1272.505
636.093	1271.062
636.221	1264.062
636.349	1271.093
636.477	1261.856
636.605	1259.124
636.733	1269.361
636.862	1250.938
636.990	1263.340
637.118	1267.660
637.246	1264.546
637.374	1259.711
637.502	1263.124
637.630	1261.299
637.758	1256.680
637.887	1251.691
638.015	1264.639
638.143	1258.866
638.271	1253.557
638.399	1258.722
638.527	1248.165
638.655	1258.505
638.783	1255.278
638.912	1254.680
639.040	1250.381
639.168	1244.000
639.296	1248.794
639.424	1253.722
639.552	1252.010
639.680	1252.701
639.808	1244.701
639.937	1246.330
640.065	1250.670
640.193	1259.938
640.321	1260.093
640.449	1249.278
640.577	1260.784
640.705	1244.794
640.833	1259.639
640.962	1264.887
641.090	1255.619
641.218	1259.309
641.346	1247.289
641.474	1248.763
641.602	1250.907
641.730	1269.814
641.858	1255.948
641.987	1271.371
642.115	1267.825
642.243	1250.784
642.371	1269.804
642.499	1258.763
642.627	1265.464
642.755	1265.938
642.883	1271.990
643.012	1275.247
643.140	1265.629
643.268	1269.454
643.396	1267.835
643.524	1278.258
643.652	1274.897
643.780	1274.526
643.908	1277.536
644.037	1272.072
644.165	1275.660
644.293	1281.753
644.421	1265.546
644.549	1283.608
644.677	1297.454
644.805	1286.732
644.933	1275.361
645.062	1275.567
645.190	1281.124
645.318	1279.309
645.446	1289.711
645.574	1293.711
645.702	1286.309
645.830	1294.258
645.958	1293.381
646.087	1286.763
646.215	1280.639
646.343	1296.227
646.471	1292.031
646.599	1289.309
646.727	1287.711
646.855	1293.093
646.983	1279.711
647.112	1294.258
647.240	1297.124
647.368	1276.897
647.496	1277.381
647.624	1283.031
647.752	1281.330
647.880	1284.856
648.008	1283.928
648.137	1270.959
648.265	1279.495
648.393	1270.381
648.521	1284.773
648.649	1276.680
648.777	1271.361
648.905	1273.722
649.033	1262.598
649.162	1266.330
649.290	1263.443
649.418	1266.588
649.546	1266.680
649.674	1267.763
649.802	1266.814
649.930	1262.289
650.058	1262.206
650.187	1257.969
650.315	1263.629
650.443	1258.052
650.571	1258.557
650.699	1261.835
650.827	1266.227
650.955	1261.206
651.083	1260.649
651.212	1260.691
651.340	1246.062
651.468	1257.031
651.596	1255.485
651.724	1258.021
651.852	1245.784
651.980	1246.577
652.108	1260.495
652.237	1249.577
652.365	1253.072
652.493	1249.268
652.621	1245.412
652.749	1253.711
652.877	1253.113
653.005	1251.918
653.133	1254.577
653.262	1247.155
653.390	1246.330
653.518	1253.763
653.646	1241.629
653.774	1248.021
653.902	1258.856
654.030	1244.918
654.158	1236.227
654.287	1243.959
654.415	1236.464
654.543	1238.155
654.671	1235.814
654.799	1228.722
654.927	1235.165
655.055	1231.010
655.183	1220.866
655.312	1226.835
655.440	1233.619
655.568	1222.351
655.696	1231.196
655.824	1240.495
655.952	1229.990
656.080	1234.268
656.208	1228.113
656.337	1221.835
656.465	1235.619
656.593	1222.546
656.721	1227.320
656.849	1223.835
656.977	1224.608
657.105	1220.258
657.233	1216.155
657.362	1222.381
657.490	1215.897
657.618	1219.433
657.746	1215.588
657.874	1211.598
658.002	1215.216
658.130	1222.804
658.258	1211.052
658.387	1220.897
658.515	1204.588
658.643	1208.412
658.771	1209.598
658.899	1208.423
659.027	1224.175
659.155	1207.526
659.283	1198.948
659.412	1207.072
659.540	1206.320
659.668	1207.866
659.796	1199.423
659.924	1207.227
660.052	1192.103
660.180	1198.392
660.308	1201.062
660.437	1201.093
660.565	1200.845
660.693	1205.289
660.821	1191.196
660.949	1195.412
661.077	1192.711
661.205	1201.402
661.333	1192.990
661.462	1211.969
661.590	1205.443
661.718	1192.464
661.846	1192.464
661.974	1188.227
662.102	1193.990
662.230	1196.072
662.358	1194.608
662.487	1186.309
662.615	1179.309
662.743	1196.031
662.871	1185.918
662.999	1194.887
663.127	1180.010
663.255	1195.144
663.383	1190.474
663.512	1193.629
663.640	1191.340
663.768	1185.598
663.896	1184.186
664.024	1187.526
664.152	1181.742
664.280	1190.340
664.408	1183.165
664.537	1182.330
664.665	1185.124
664.793	1180.619
664.921	1171.619
665.049	1185.887
665.177	1189.825
665.305	1179.258
665.433	1186.856
665.562	1199.588
665.690	1184.000
665.818	1187.443
665.946	1188.567
666.074	1186.619
666.202	1184.134
666.330	1184.113
666.458	1181.835
666.587	1177.773
666.715	1186.206
666.843	1188.216
666.971	1185.979
667.099	1192.639
667.227	1191.443
667.355	1175.082
667.483	1176.330
667.612	1182.165
667.740	1177.959
667.868	1183.155
667.996	1181.351
668.124	1178.443
668.252	1177.670
668.380	1178.186
668.508	1189.866
668.637	1173.928
668.765	1176.113
668.893	1178.454
669.021	1185.722
669.149	1172.907
669.277	1173.361
669.405	1173.938
669.533	1177.010
669.662	1175.165
669.790	1166.711
669.918	1171.392
670.046	1168.247
670.174	1174.330
670.302	1175.103
670.430	1163.330
670.558	1174.361
670.687	1163.784
670.815	1158.897
670.943	1164.495
671.071	1166.268
671.199	1156.505
671.327	1144.969
671.455	1154.258
671.583	1157.216
671.712	1149.186
671.840	1153.897
671.968	1150.144
672.096	1142.082
672.224	1150.289
672.352	1148.619
672.480	1148.206
672.608	1151.959
672.737	1139.000
672.865	1136.454
672.993	1129.010
673.121	1146.722
673.249	1134.876
673.377	1139.691
673.505	1140.825
673.633	1121.938
673.762	1124.433
673.890	1120.845
674.018	1124.258
674.146	1115.680
674.274	1131.124
674.402	1115.835
674.530	1112.289
674.658	1115.515
674.787	1109.041
674.915	1106.588
675.043	1112.082
675.171	1113.588
675.299	1104.464
675.427	1105.897
675.555	1105.031
675.683	1100.804
675.812	1094.412
675.940	1092.691
676.068	1088.814
676.196	1096.753
676.324	1096.010
676.452	1082.763
676.580	1085.113
676.708	1082.763
676.837	1095.206
676.965	1075.804
677.093	1088.278
677.221	1086.753
677.349	1076.165
677.477	1081.969
677.605	1068.619
677.733	1072.175
677.862	1064.948
677.990	1066.464
678.118	1067.753
678.246	1070.165
678.374	1056.278
678.502	1064.155
678.630	1051.237
678.758	1055.000
678.887	1063.835
679.015	1071.660
679.143	1052.515
679.271	1056.629
679.399	1050.351
679.527	1041.010
679.655	1045.093
679.783	1056.289
679.912	1042.670
680.040	1043.196
680.168	1045.320
680.296	1044.196
680.424	1051.814
680.552	1043.732
680.680	1046.134
680.808	1040.247
680.937	1045.907
681.065	1035.577
681.193	1039.464
681.321	1042.423
681.449	1033.124
681.577	1043.515
681.705	1042.598
681.833	1039.546
681.962	1034.969
682.090	1037.701
682.218	1038.753
682.346	1031.258
682.474	1032.660
682.602	1036.289
682.730	1028.639
682.858	1037.680
682.987	1031.495
683.115	1026.124
683.243	1038.845
683.371	1026.247
683.499	1029.526
683.627	1028.876
683.755	1021.897
683.883	1033.959
684.012	1027.495
684.140	1024.938
684.268	1024.938
684.396	1023.814
684.524	1017.402
684.652	1022.784
684.780	1023.134
684.908	1025.134
685.037	1016.340
685.165	1027.175
685.293	1019.289
685.421	1019.969
685.549	1023.216
685.677	1027.546
685.805	1023.464
685.933	1027.691
686.062	1015.010
686.190	1021.577
686.318	1029.979
686.446	1017.412
686.574	1021.680
686.702	1019.412
686.830	1033.433
686.958	1016.093
687.087	1023.515
687.215	1013.464
687.343	1016.299
687.471	1025.536
687.599	1018.278
687.727	1011.103
687.855	1014.299
687.983	1024.773
688.112	1010.567
688.240	1020.392
688.368	1020.247
688.496	1012.856
688.624	1019.649
688.752	1014.330
688.880	1012.144
689.008	1013.691
689.137	1016.608
689.265	1008.515
689.393	1003.278
689.521	1007.753
689.649	1017.464
689.777	1000.021
689.905	1006.608
690.033	1004.845
690.162	999.763
690.290	996.660
690.418	1006.742
690.546	994.010
690.674	997.670
690.802	997.856
690.930	993.175
691.058	988.144
691.187	985.742
691.315	999.474
691.443	983.433
691.571	987.742
691.699	978.619
691.827	985.289
691.955	981.536
692.083	980.680
692.212	974.216
692.340	976.196
692.468	968.113
692.596	975.670
692.724	975.732
692.852	966.299
692.980	959.608
693.108	959.134
693.237	967.340
693.365	969.165
693.493	960.485
693.621	951.938
693.749	953.144
693.877	947.361
694.005	953.866
694.133	959.330
694.262	945.155
694.390	953.258
694.518	940.753
694.646	940.093
694.774	948.402
694.902	938.639
695.030	947.691
695.158	943.495
695.287	934.351
695.415	937.753
695.543	937.639
695.671	934.175
695.799	931.598
695.927	930.454
696.055	933.464
696.183	936.691
696.312	927.464
696.440	930.485
696.568	927.701
696.696	916.402
696.824	924.495
696.952	915.680
697.080	906.866
697.208	920.649
697.337	904.567
697.465	911.216
697.593	919.443
697.721	914.546
697.849	913.546
697.977	905.969
698.105	910.897
698.233	914.598
698.362	903.371
698.490	905.928
698.618	902.670
698.746	908.392
698.874	908.856
699.002	902.619
699.130	895.258
699.258	905.526
699.387	897.887
699.515	896.619
699.643	901.175
699.771	897.412
699.899	901.567
700.027	891.412
700.155	891.969
700.283	882.649
700.412	889.722
700.540	893.835
700.668	884.082
700.796	883.753
700.924	870.588
701.052	885.371
701.180	877.546
701.308	873.144
701.437	870.742
701.565	869.835
701.693	873.082
701.821	871.268
701.949	860.825
702.077	859.928
702.205	867.247
702.333	860.835
702.462	860.206
702.590	862.247
702.718	867.423
702.846	853.526
702.974	849.196
703.102	853.969
703.230	845.144
703.358	848.216
703.487	845.742
703.615	845.505
703.743	832.113
703.871	835.907
703.999	831.639
704.127	836.464
704.255	834.876
704.383	828.237
704.512	827.763
704.640	825.629
704.768	820.887
704.896	811.918
705.024	822.165
705.152	820.680
705.280	814.485
705.408	806.196
705.537	815.711
705.665	808.825
705.793	805.577
705.921	812.082
706.049	804.773
706.177	805.866
706.305	809.928
706.433	803.412
706.562	793.124
706.690	796.948
706.818	793.804
706.946	784.237
707.074	791.691
707.202	790.639
707.330	778.629
707.458	784.959
707.587	784.588
707.715	776.918
707.843	773.701
707.971	772.979
708.099	769.351
708.227	764.928
708.355	775.938
708.483	771.000
708.612	772.041
708.740	769.660
708.868	761.979
708.996	771.649
709.124	764.474
709.252	760.876
709.380	765.959
709.508	755.639
709.637	764.371
709.765	759.268
709.893	756.155
710.021	752.227
710.149	755.835
710.277	749.928
710.405	753.660
710.533	747.526
710.662	746.485
710.790	746.784
710.918	753.990
711.046	751.794
711.174	747.093
711.302	745.052
711.430	744.474
711.558	746.814
711.687	742.814
711.815	749.052
711.943	745.732
712.071	745.351
712.199	741.216
712.327	728.351
712.455	735.526
712.583	736.897
712.712	737.485
712.840	733.474
712.968	734.474
713.096	732.619
713.224	718.433
713.352	727.103
713.480	729.021
713.608	733.330
713.737	728.722
713.865	723.536
713.993	726.948
714.121	717.474
714.249	727.557
714.377	720.052
714.505	729.289
714.633	710.598
714.762	718.144
714.890	721.124
715.018	716.454
715.146	722.526
715.274	713.711
715.402	709.639
715.530	718.784
715.658	714.825
715.787	711.969
715.915	713.330
716.043	715.041
716.171	703.742
716.299	716.722
716.427	714.866
716.555	708.082
716.683	702.196
716.812	706.794
716.940	708.454
717.068	704.320
717.196	701.268
717.324	698.928
717.452	699.588
717.580	695.691
717.708	707.227
717.837	694.412
717.965	696.134
718.093	700.619
718.221	686.691
718.349	689.598
718.477	690.330
718.605	689.722
718.733	683.216
718.862	677.784
718.990	686.206
719.118	677.938
719.246	684.629
719.374	681.608
719.502	680.402
719.630	675.722
719.758	683.536
719.887	679.784
720.015	676.639
720.143	667.598
720.271	676.979
720.399	666.010
720.527	663.289
720.655	666.000
720.783	661.186
720.912	662.031
721.040	666.691
721.168	666.639
721.296	655.278
721.424	657.196
721.552	652.887
721.680	653.918
721.808	650.124
721.937	648.619
722.065	656.649
722.193	644.845
722.321	656.629
722.449	640.742
722.577	638.289
722.705	644.526
722.833	636.639
722.962	638.216
723.090	633.144
723.218	632.412
723.346	634.763
723.474	634.577
723.602	631.361
723.730	623.907
723.858	623.175
723.987	623.505
724.115	613.577
724.243	613.835
724.371	615.959
724.499	623.041
724.627	613.113
724.755	613.928
724.883	623.577
725.012	603.959
725.140	601.722
725.268	609.289
725.396	605.000
725.524	605.021
725.652	596.670
725.780	593.680
725.908	596.701
726.037	598.062
726.165	598.835
726.293	590.670
726.421	592.526
726.549	590.000
726.677	583.320
726.805	591.711
726.933	584.196
727.062	582.660
727.190	583.165
727.318	582.361
727.446	578.134
727.574	580.711
727.702	569.175
727.830	573.876
727.958	572.134
728.087	568.608
728.215	569.598
728.343	572.165
728.471	564.082
728.599	569.309
728.727	563.814
728.855	561.371
728.983	555.041
729.112	558.794
729.240	559.680
729.368	558.887
729.496	557.371
729.624	557.361
729.752	550.062
729.880	553.216
730.008	553.144
730.137	549.031
730.265	544.887
730.393	553.351
730.521	547.711
730.649	546.330
730.777	540.320
730.905	542.031
731.033	543.505
731.162	536.814
731.290	535.237
731.418	541.897
731.546	537.206
731.674	535.526
731.802	533.227
731.930	533.588
732.058	529.433
732.187	530.134
732.315	517.784
732.443	531.608
732.571	522.144
732.699	532.021
732.827	522.567
732.955	517.639
733.083	520.175
733.212	517.948
733.340	521.062
733.468	521.227
733.596	516.959
733.724	515.320
733.852	516.732
733.980	513.979
734.108	515.567
734.237	517.268
734.365	509.598
734.493	518.093
734.621	508.402
734.749	507.495
734.877	511.381
735.005	513.113
735.133	509.402
735.262	507.959
735.390	501.103
735.518	506.907
735.646	502.423
735.774	505.918
735.902	503.794
736.030	512.289
736.158	504.299
736.287	494.227
736.415	507.835
736.543	502.392
736.671	496.134
736.799	498.557
736.927	491.897
737.055	494.660
737.183	491.598
737.312	485.351
737.440	491.691
737.568	493.598
737.696	496.773
737.824	485.320
737.952	485.979
738.080	483.546
738.208	482.773
738.337	475.289
738.465	478.464
738.593	478.216
738.721	477.412
738.849	476.990
738.977	475.742
