sample13u_at_750.00nm_cut_at_1060.50Y_01.dat
19.06.2023
11:19:43
cut middle at Y: 1060.50
top cursor: 1109 down cursor: 1012 mean of: 97 lines , 2560 datapoints
wavelength(nm)	intensity[arb. units]
585.996	1771.546
586.124	1721.753
586.252	1724.990
586.380	1719.186
586.508	1720.124
586.637	1727.165
586.765	1730.546
586.893	1732.619
587.021	1739.031
587.149	1732.876
587.277	1725.031
587.405	1736.113
587.533	1724.835
587.662	1742.948
587.790	1739.701
587.918	1749.340
588.046	1748.691
588.174	1758.361
588.302	1751.237
588.430	1748.567
588.558	1754.732
588.687	1754.144
588.815	1760.515
588.943	1779.680
589.071	1758.701
589.199	1766.371
589.327	1762.711
589.455	1766.072
589.583	1769.660
589.712	1776.918
589.840	1768.598
589.968	1758.979
590.096	1773.670
590.224	1774.835
590.352	1780.454
590.480	1777.175
590.608	1785.165
590.737	1767.155
590.865	1784.959
590.993	1793.247
591.121	1768.835
591.249	1776.629
591.377	1781.794
591.505	1771.804
591.633	1777.577
591.762	1798.691
591.890	1798.567
592.018	1777.093
592.146	1784.340
592.274	1793.186
592.402	1796.454
592.530	1791.577
592.658	1801.825
592.787	1805.196
592.915	1797.505
593.043	1807.186
593.171	1800.918
593.299	1818.536
593.427	1802.577
593.555	1825.722
593.683	1806.402
593.812	1823.639
593.940	1830.289
594.068	1817.990
594.196	1840.392
594.324	1825.526
594.452	1854.835
594.580	1849.660
594.708	1846.144
594.837	1855.320
594.965	1861.495
595.093	1863.402
595.221	1861.268
595.349	1878.670
595.477	1868.701
595.605	1865.742
595.733	1888.588
595.862	1882.093
595.990	1882.505
596.118	1885.227
596.246	1899.010
596.374	1899.897
596.502	1904.124
596.630	1909.629
596.758	1898.856
596.887	1918.567
597.015	1923.845
597.143	1894.278
597.271	1903.876
597.399	1918.258
597.527	1915.866
597.655	1909.247
597.783	1920.361
597.912	1906.918
598.040	1906.072
598.168	1908.732
598.296	1908.577
598.424	1905.309
598.552	1905.485
598.680	1904.443
598.808	1906.969
598.937	1910.732
599.065	1921.340
599.193	1914.062
599.321	1891.722
599.449	1925.485
599.577	1916.258
599.705	1924.175
599.833	1916.216
599.962	1907.887
600.090	1910.340
600.218	1918.546
600.346	1930.990
600.474	1920.093
600.602	1935.072
600.730	1919.371
600.858	1923.856
600.987	1930.000
601.115	1920.825
601.243	1917.052
601.371	1931.969
601.499	1933.969
601.627	1929.082
601.755	1941.639
601.883	1948.000
602.012	1955.144
602.140	1942.124
602.268	1963.814
602.396	1960.258
602.524	1965.598
602.652	1971.567
602.780	1975.443
602.908	1971.546
603.037	1987.680
603.165	1992.134
603.293	2014.227
603.421	2003.711
603.549	1996.093
603.677	2032.845
603.805	2016.082
603.933	2025.990
604.062	2031.526
604.190	2049.938
604.318	2047.082
604.446	2053.155
604.574	2044.629
604.702	2068.062
604.830	2054.639
604.958	2099.423
605.087	2086.320
605.215	2085.773
605.343	2101.619
605.471	2109.093
605.599	2107.443
605.727	2109.072
605.855	2110.515
605.983	2102.093
606.112	2148.124
606.240	2148.052
606.368	2125.722
606.496	2144.216
606.624	2138.887
606.752	2134.237
606.880	2137.299
607.008	2144.660
607.137	2156.979
607.265	2142.897
607.393	2168.082
607.521	2160.433
607.649	2153.113
607.777	2150.495
607.905	2160.887
608.033	2167.021
608.162	2150.649
608.290	2136.052
608.418	2183.072
608.546	2157.907
608.674	2180.412
608.802	2152.536
608.930	2169.072
609.058	2156.165
609.187	2168.495
609.315	2152.330
609.443	2164.845
609.571	2154.660
609.699	2158.144
609.827	2148.938
609.955	2155.093
610.083	2144.381
610.212	2153.948
610.340	2153.763
610.468	2157.474
610.596	2166.577
610.724	2143.928
610.852	2157.928
610.980	2169.711
611.108	2169.598
611.237	2165.340
611.365	2162.330
611.493	2159.062
611.621	2175.938
611.749	2190.784
611.877	2199.897
612.005	2185.711
612.133	2183.753
612.262	2176.340
612.390	2198.443
612.518	2204.814
612.646	2196.144
612.774	2210.433
612.902	2221.082
613.030	2220.289
613.158	2225.134
613.287	2217.536
613.415	2232.794
613.543	2235.526
613.671	2243.619
613.799	2231.454
613.927	2231.103
614.055	2254.454
614.183	2264.959
614.312	2254.835
614.440	2265.711
614.568	2265.670
614.696	2289.423
614.824	2271.608
614.952	2282.979
615.080	2294.784
615.208	2295.990
615.337	2305.918
615.465	2300.485
615.593	2321.402
615.721	2316.876
615.849	2315.680
615.977	2325.784
616.105	2310.629
616.233	2318.794
616.362	2331.423
616.490	2331.237
616.618	2339.186
616.746	2332.866
616.874	2370.103
617.002	2349.907
617.130	2358.237
617.258	2346.938
617.387	2335.206
617.515	2350.392
617.643	2369.773
617.771	2359.938
617.899	2365.258
618.027	2351.825
618.155	2368.784
618.283	2378.351
618.412	2358.918
618.540	2373.299
618.668	2388.093
618.796	2364.742
618.924	2384.887
619.052	2378.227
619.180	2385.454
619.308	2380.443
619.437	2377.598
619.565	2384.742
619.693	2385.103
619.821	2391.216
619.949	2391.134
620.077	2400.412
620.205	2397.062
620.333	2392.866
620.462	2417.443
620.590	2402.546
620.718	2398.722
620.846	2398.165
620.974	2424.072
621.102	2419.021
621.230	2411.629
621.358	2408.330
621.487	2399.856
621.615	2421.969
621.743	2416.175
621.871	2420.247
621.999	2424.876
622.127	2415.722
622.255	2419.763
622.383	2426.897
622.512	2410.165
622.640	2443.866
622.768	2425.835
622.896	2425.124
623.024	2408.371
623.152	2452.082
623.280	2421.124
623.408	2417.608
623.537	2435.629
623.665	2429.186
623.793	2438.031
623.921	2418.062
624.049	2432.784
624.177	2435.464
624.305	2428.175
624.433	2437.825
624.562	2443.536
624.690	2437.371
624.818	2440.691
624.946	2442.711
625.074	2432.309
625.202	2435.918
625.330	2422.000
625.458	2451.773
625.587	2447.619
625.715	2444.454
625.843	2455.062
625.971	2440.000
626.099	2447.186
626.227	2452.041
626.355	2443.206
626.483	2473.175
626.612	2451.351
626.740	2441.381
626.868	2474.691
626.996	2449.340
627.124	2453.247
627.252	2446.959
627.380	2449.784
627.508	2454.536
627.637	2451.206
627.765	2467.938
627.893	2483.443
628.021	2443.320
628.149	2467.464
628.277	2483.402
628.405	2495.897
628.533	2478.505
628.662	2468.959
628.790	2483.887
628.918	2486.814
629.046	2489.299
629.174	2502.186
629.302	2515.608
629.430	2484.959
629.558	2495.320
629.687	2514.639
629.815	2500.268
629.943	2529.814
630.071	2519.938
630.199	2515.155
630.327	2514.876
630.455	2509.557
630.583	2551.330
630.712	2536.897
630.840	2525.371
630.968	2551.175
631.096	2538.711
631.224	2516.464
631.352	2530.680
631.480	2537.278
631.608	2549.464
631.737	2585.835
631.865	2636.320
631.993	2552.763
632.121	2592.722
632.249	2607.639
632.377	2566.546
632.505	2567.278
632.633	2546.722
632.762	2585.701
632.890	2599.567
633.018	2546.639
633.146	2570.196
633.274	2580.443
633.402	2565.021
633.530	2529.247
633.658	2621.742
633.787	2549.918
633.915	2598.340
634.043	2561.175
634.171	2571.660
634.299	2584.825
634.427	2597.124
634.555	2599.031
634.683	2582.309
634.812	2560.021
634.940	2581.701
635.068	2547.763
635.196	2574.711
635.324	2576.423
635.452	2600.979
635.580	2552.485
635.708	2557.443
635.837	2587.227
635.965	2558.732
636.093	2546.526
636.221	2539.918
636.349	2567.402
636.477	2520.639
636.605	2600.155
636.733	2526.268
636.862	2520.454
636.990	2532.742
637.118	2548.309
637.246	2519.536
637.374	2533.443
637.502	2522.052
637.630	2527.351
637.758	2532.567
637.887	2496.577
638.015	2514.227
638.143	2511.629
638.271	2503.938
638.399	2517.330
638.527	2499.268
638.655	2506.124
638.783	2548.546
638.912	2531.474
639.040	2510.423
639.168	2518.433
639.296	2511.134
639.424	2544.825
639.552	2505.041
639.680	2500.443
639.808	2497.392
639.937	2488.485
640.065	2502.495
640.193	2544.165
640.321	2506.876
640.449	2532.784
640.577	2517.289
640.705	2491.144
640.833	2530.247
640.962	2522.134
641.090	2515.103
641.218	2505.041
641.346	2501.381
641.474	2513.928
641.602	2510.165
641.730	2516.134
641.858	2513.732
641.987	2537.082
642.115	2520.598
642.243	2525.196
642.371	2533.351
642.499	2526.423
642.627	2536.216
642.755	2518.278
642.883	2547.515
643.012	2514.474
643.140	2529.062
643.268	2525.856
643.396	2545.825
643.524	2607.299
643.652	2539.278
643.780	2549.845
643.908	2531.784
644.037	2569.309
644.165	2533.959
644.293	2559.412
644.421	2545.784
644.549	2574.351
644.677	2558.876
644.805	2581.433
644.933	2554.742
645.062	2553.062
645.190	2574.031
645.318	2586.485
645.446	2580.742
645.574	2564.206
645.702	2557.010
645.830	2629.165
645.958	2581.000
646.087	2612.691
646.215	2565.876
646.343	2651.258
646.471	2581.948
646.599	2598.794
646.727	2567.515
646.855	2569.392
646.983	2602.392
647.112	2571.412
647.240	2655.216
647.368	2563.443
647.496	2588.701
647.624	2549.021
647.752	2553.567
647.880	2565.557
648.008	2572.320
648.137	2554.701
648.265	2545.289
648.393	2559.031
648.521	2563.526
648.649	2571.629
648.777	2565.474
648.905	2530.526
649.033	2547.464
649.162	2561.784
649.290	2525.897
649.418	2544.928
649.546	2539.227
649.674	2553.670
649.802	2546.289
649.930	2558.557
650.058	2541.866
650.187	2533.072
650.315	2542.340
650.443	2552.258
650.571	2524.897
650.699	2527.206
650.827	2526.979
650.955	2534.732
651.083	2516.990
651.212	2526.670
651.340	2553.186
651.468	2529.351
651.596	2518.567
651.724	2514.773
651.852	2514.340
651.980	2497.052
652.108	2543.093
652.237	2518.938
652.365	2503.773
652.493	2497.175
652.621	2498.206
652.749	2492.093
652.877	2507.258
653.005	2505.351
653.133	2507.701
653.262	2502.330
653.390	2508.629
653.518	2526.299
653.646	2494.124
653.774	2548.124
653.902	2499.000
654.030	2484.856
654.158	2477.103
654.287	2473.629
654.415	2477.794
654.543	2484.608
654.671	2472.536
654.799	2473.588
654.927	2473.691
655.055	2461.381
655.183	2471.938
655.312	2447.268
655.440	2470.907
655.568	2462.052
655.696	2496.330
655.824	2495.433
655.952	2460.866
656.080	2456.732
656.208	2499.876
656.337	2445.515
656.465	2476.619
656.593	2468.309
656.721	2464.155
656.849	2463.134
656.977	2453.454
657.105	2442.526
657.233	2442.392
657.362	2435.289
657.490	2439.196
657.618	2429.763
657.746	2442.680
657.874	2419.804
658.002	2425.062
658.130	2432.196
658.258	2437.165
658.387	2428.309
658.515	2419.175
658.643	2413.186
658.771	2417.392
658.899	2420.155
659.027	2420.134
659.155	2413.649
659.283	2424.825
659.412	2397.454
659.540	2413.763
659.668	2413.990
659.796	2386.959
659.924	2404.216
660.052	2389.546
660.180	2388.412
660.308	2405.969
660.437	2390.588
660.565	2374.000
660.693	2394.938
660.821	2383.485
660.949	2395.320
661.077	2374.268
661.205	2383.701
661.333	2369.320
661.462	2388.402
661.590	2391.918
661.718	2376.835
661.846	2375.371
661.974	2371.268
662.102	2373.876
662.230	2379.072
662.358	2371.320
662.487	2367.845
662.615	2345.887
662.743	2369.082
662.871	2356.258
662.999	2378.753
663.127	2358.052
663.255	2363.928
663.383	2375.155
663.512	2363.598
663.640	2377.165
663.768	2352.278
663.896	2368.402
664.024	2352.598
664.152	2366.722
664.280	2367.856
664.408	2350.557
664.537	2381.629
664.665	2364.649
664.793	2351.309
664.921	2346.691
665.049	2352.134
665.177	2372.392
665.305	2359.330
665.433	2354.247
665.562	2355.608
665.690	2341.742
665.818	2361.072
665.946	2363.732
666.074	2365.845
666.202	2352.794
666.330	2346.691
666.458	2353.000
666.587	2332.763
666.715	2356.763
666.843	2349.237
666.971	2350.691
667.099	2350.031
667.227	2371.598
667.355	2356.567
667.483	2346.887
667.612	2346.485
667.740	2358.062
667.868	2358.103
667.996	2352.299
668.124	2344.742
668.252	2369.464
668.380	2321.309
668.508	2361.742
668.637	2336.784
668.765	2360.402
668.893	2344.443
669.021	2341.825
669.149	2347.309
669.277	2326.412
669.405	2329.113
669.533	2336.093
669.662	2341.918
669.790	2320.268
669.918	2341.505
670.046	2328.557
670.174	2316.907
670.302	2333.474
670.430	2310.742
670.558	2315.206
670.687	2313.825
670.815	2309.722
670.943	2316.536
671.071	2301.732
671.199	2304.113
671.327	2295.938
671.455	2307.454
671.583	2292.577
671.712	2295.526
671.840	2276.062
671.968	2282.670
672.096	2266.289
672.224	2267.340
672.352	2267.969
672.480	2271.856
672.608	2262.454
672.737	2255.722
672.865	2251.557
672.993	2241.660
673.121	2254.082
673.249	2250.361
673.377	2233.887
673.505	2238.557
673.633	2216.165
673.762	2225.784
673.890	2234.897
674.018	2217.299
674.146	2213.196
674.274	2223.258
674.402	2203.598
674.530	2199.515
674.658	2199.701
674.787	2186.804
674.915	2188.722
675.043	2177.412
675.171	2189.155
675.299	2187.010
675.427	2177.258
675.555	2176.186
675.683	2169.918
675.812	2153.876
675.940	2146.598
676.068	2164.959
676.196	2144.134
676.324	2158.412
676.452	2142.763
676.580	2141.361
676.708	2126.041
676.837	2156.361
676.965	2123.938
677.093	2135.227
677.221	2118.351
677.349	2103.041
677.477	2110.237
677.605	2106.608
677.733	2109.021
677.862	2095.268
677.990	2103.309
678.118	2096.732
678.246	2077.340
678.374	2081.423
678.502	2084.062
678.630	2063.443
678.758	2072.825
678.887	2066.454
679.015	2081.887
679.143	2064.423
679.271	2070.794
679.399	2060.010
679.527	2045.598
679.655	2057.680
679.783	2062.495
679.912	2045.392
680.040	2051.186
680.168	2044.845
680.296	2037.392
680.424	2046.938
680.552	2035.639
680.680	2027.320
680.808	2023.825
680.937	2028.526
681.065	2034.206
681.193	2027.289
681.321	2021.629
681.449	2021.299
681.577	2023.320
681.705	1999.371
681.833	2013.196
681.962	2002.722
682.090	2017.443
682.218	2013.402
682.346	2022.082
682.474	2001.845
682.602	2018.464
682.730	2001.392
682.858	2007.670
682.987	2012.000
683.115	2001.639
683.243	1985.928
683.371	1984.763
683.499	1984.670
683.627	2012.804
683.755	1980.113
683.883	1997.433
684.012	1977.680
684.140	1972.948
684.268	1983.649
684.396	1984.464
684.524	1980.979
684.652	2000.567
684.780	1993.526
684.908	1990.835
685.037	1990.722
685.165	1983.010
685.293	1985.887
685.421	1972.505
685.549	1969.948
685.677	1986.320
685.805	1973.722
685.933	1990.825
686.062	1968.361
686.190	1974.268
686.318	1985.247
686.446	1969.918
686.574	1967.979
686.702	1980.495
686.830	1970.918
686.958	1967.938
687.087	1983.227
687.215	1954.753
687.343	1957.021
687.471	1961.701
687.599	1957.237
687.727	1955.763
687.855	1945.577
687.983	1951.103
688.112	1959.959
688.240	1943.619
688.368	1958.381
688.496	1947.753
688.624	1946.536
688.752	1941.784
688.880	1940.629
689.008	1935.763
689.137	1926.567
689.265	1935.021
689.393	1939.763
689.521	1937.227
689.649	1920.320
689.777	1909.773
689.905	1926.763
690.033	1907.031
690.162	1897.804
690.290	1904.361
690.418	1907.722
690.546	1889.588
690.674	1920.289
690.802	1888.948
690.930	1901.278
691.058	1887.175
691.187	1869.711
691.315	1893.876
691.443	1884.546
691.571	1873.144
691.699	1855.299
691.827	1853.938
691.955	1860.876
692.083	1851.278
692.212	1853.299
692.340	1840.722
692.468	1848.402
692.596	1843.155
692.724	1829.299
692.852	1824.000
692.980	1825.000
693.108	1832.165
693.237	1826.041
693.365	1807.742
693.493	1803.897
693.621	1794.577
693.749	1797.381
693.877	1795.144
694.005	1787.495
694.133	1798.722
694.262	1790.361
694.390	1778.402
694.518	1771.598
694.646	1773.876
694.774	1784.010
694.902	1766.825
695.030	1796.474
695.158	1757.433
695.287	1766.495
695.415	1758.031
695.543	1768.268
695.671	1738.237
695.799	1737.660
695.927	1733.691
696.055	1734.031
696.183	1755.701
696.312	1739.464
696.440	1724.186
696.568	1723.763
696.696	1716.402
696.824	1717.742
696.952	1717.041
697.080	1697.897
697.208	1711.959
697.337	1694.392
697.465	1705.258
697.593	1700.804
697.721	1704.814
697.849	1698.433
697.977	1695.711
698.105	1691.495
698.233	1687.330
698.362	1674.196
698.490	1679.433
698.618	1672.216
698.746	1670.557
698.874	1667.835
699.002	1669.124
699.130	1655.423
699.258	1672.175
699.387	1652.691
699.515	1650.082
699.643	1651.237
699.771	1647.031
699.899	1633.041
700.027	1628.021
700.155	1636.155
700.283	1634.433
700.412	1617.598
700.540	1626.381
700.668	1616.186
700.796	1616.320
700.924	1606.495
701.052	1597.691
701.180	1606.175
701.308	1602.196
701.437	1588.856
701.565	1587.577
701.693	1580.804
701.821	1588.825
701.949	1575.732
702.077	1564.505
702.205	1571.804
702.333	1564.918
702.462	1565.918
702.590	1554.711
702.718	1566.155
702.846	1538.680
702.974	1541.897
703.102	1532.928
703.230	1535.845
703.358	1520.443
703.487	1517.165
703.615	1512.639
703.743	1499.278
703.871	1503.639
703.999	1493.804
704.127	1489.825
704.255	1492.268
704.383	1485.392
704.512	1484.546
704.640	1479.505
704.768	1470.526
704.896	1462.216
705.024	1455.361
705.152	1449.454
705.280	1457.876
705.408	1449.629
705.537	1443.330
705.665	1447.134
705.793	1435.124
705.921	1424.753
706.049	1432.598
706.177	1413.990
706.305	1422.990
706.433	1416.990
706.562	1418.649
706.690	1405.010
706.818	1399.144
706.946	1399.495
707.074	1397.144
707.202	1380.165
707.330	1368.247
707.458	1376.381
707.587	1366.196
707.715	1374.845
707.843	1354.186
707.971	1359.330
708.099	1352.412
708.227	1345.206
708.355	1343.732
708.483	1349.041
708.612	1356.402
708.740	1338.907
708.868	1323.804
708.996	1330.052
709.124	1329.433
709.252	1328.732
709.380	1319.990
709.508	1309.443
709.637	1310.052
709.765	1308.454
709.893	1310.237
710.021	1302.031
710.149	1308.206
710.277	1304.062
710.405	1291.887
710.533	1290.979
710.662	1277.825
710.790	1297.794
710.918	1281.258
711.046	1295.186
711.174	1283.010
711.302	1272.804
711.430	1274.526
711.558	1271.763
711.687	1263.464
711.815	1263.990
711.943	1264.742
712.071	1266.485
712.199	1252.278
712.327	1256.165
712.455	1253.557
712.583	1254.660
712.712	1256.258
712.840	1245.175
712.968	1240.031
713.096	1236.330
713.224	1246.268
713.352	1237.278
713.480	1225.680
713.608	1229.649
713.737	1222.392
713.865	1222.969
713.993	1222.412
714.121	1209.763
714.249	1225.361
714.377	1220.701
714.505	1214.814
714.633	1206.299
714.762	1205.165
714.890	1202.711
715.018	1204.247
715.146	1198.856
715.274	1186.423
715.402	1191.588
715.530	1199.887
715.658	1175.959
715.787	1189.619
715.915	1189.567
716.043	1194.536
716.171	1184.041
716.299	1192.979
716.427	1182.443
716.555	1178.330
716.683	1172.660
716.812	1163.670
716.940	1169.598
717.068	1157.629
717.196	1168.041
717.324	1155.773
717.452	1159.124
717.580	1155.124
717.708	1149.660
717.837	1151.309
717.965	1135.227
718.093	1141.546
718.221	1131.113
718.349	1131.082
718.477	1141.598
718.605	1119.887
718.733	1133.856
718.862	1120.845
718.990	1117.979
719.118	1120.835
719.246	1115.588
719.374	1108.588
719.502	1111.237
719.630	1109.526
719.758	1107.536
719.887	1090.866
720.015	1091.938
720.143	1086.216
720.271	1092.278
720.399	1087.361
720.527	1088.856
720.655	1082.082
720.783	1068.598
720.912	1074.155
721.040	1068.753
721.168	1069.588
721.296	1057.433
721.424	1058.237
721.552	1065.299
721.680	1050.412
721.808	1051.979
721.937	1051.979
722.065	1045.722
722.193	1039.598
722.321	1037.330
722.449	1032.711
722.577	1027.361
722.705	1020.701
722.833	1013.856
722.962	1023.216
723.090	1003.918
723.218	1007.299
723.346	1005.680
723.474	1007.928
723.602	1000.165
723.730	996.258
723.858	982.082
723.987	982.247
724.115	985.918
724.243	979.680
724.371	969.588
724.499	978.732
724.627	979.093
724.755	979.144
724.883	970.948
725.012	965.835
725.140	958.526
725.268	957.041
725.396	952.278
725.524	946.505
725.652	948.144
725.780	940.165
725.908	936.454
726.037	933.402
726.165	925.701
726.293	931.649
726.421	920.165
726.549	921.309
726.677	922.763
726.805	924.196
726.933	919.598
727.062	899.907
727.190	903.619
727.318	910.722
727.446	904.784
727.574	907.010
727.702	890.742
727.830	891.515
727.958	889.124
728.087	884.485
728.215	885.825
728.343	876.021
728.471	878.629
728.599	871.825
728.727	874.773
728.855	867.629
728.983	858.340
729.112	865.165
729.240	857.041
729.368	859.309
729.496	854.103
729.624	851.309
729.752	849.021
729.880	849.814
730.008	855.918
730.137	843.979
730.265	848.938
730.393	840.371
730.521	830.990
730.649	836.887
730.777	830.567
730.905	822.948
731.033	827.845
731.162	820.258
731.290	817.113
731.418	819.753
731.546	820.495
731.674	808.763
731.802	814.928
731.930	802.897
732.058	805.000
732.187	805.876
732.315	800.320
732.443	799.784
732.571	794.608
732.699	795.691
732.827	793.155
732.955	790.959
733.083	796.412
733.212	788.495
733.340	787.093
733.468	790.134
733.596	787.990
733.724	776.474
733.852	781.546
733.980	776.000
734.108	777.443
734.237	776.062
734.365	768.526
734.493	770.608
734.621	760.866
734.749	766.856
734.877	767.763
735.005	763.959
735.133	766.670
735.262	759.907
735.390	751.495
735.518	754.649
735.646	747.629
735.774	752.557
