Ref_Stop_0_Pol_at_750.00nm_cut_at_1179.00Y_01.dat
03.07.2023
11:36:33
cut middle at Y: 1179.00
top cursor: 1231 down cursor: 1127 mean of: 104 lines , 2560 datapoints
wavelength(nm)	intensity[arb. units]
585.996	9144.615
586.124	8945.692
586.252	8929.106
586.380	8946.500
586.508	8992.942
586.637	9065.192
586.765	9003.692
586.893	9049.212
587.021	9127.875
587.149	9064.029
587.277	9104.327
587.405	9129.644
587.533	9165.202
587.662	9210.846
587.790	9162.192
587.918	9170.452
588.046	9137.837
588.174	9170.740
588.302	9159.606
588.430	9154.365
588.558	9183.067
588.687	9219.827
588.815	9183.817
588.943	9174.827
589.071	9159.337
589.199	9147.702
589.327	9175.923
589.455	9224.702
589.583	9184.240
589.712	9176.663
589.840	9143.712
589.968	9128.567
590.096	9172.385
590.224	9156.413
590.352	9206.663
590.480	9147.308
590.608	9142.442
590.737	9153.096
590.865	9245.981
590.993	9069.644
591.121	9136.510
591.249	9085.567
591.377	9099.096
591.505	9203.625
591.633	9118.788
591.762	9135.202
591.890	9130.538
592.018	9248.144
592.146	9180.087
592.274	9131.269
592.402	9111.038
592.530	9310.885
592.658	9264.106
592.787	9209.596
592.915	9261.490
593.043	9161.769
593.171	9233.519
593.299	9209.346
593.427	9207.529
593.555	9233.740
593.683	9254.683
593.812	9249.067
593.940	9254.760
594.068	9269.721
594.196	9253.625
594.324	9275.433
594.452	9506.875
594.580	9382.750
594.708	9372.298
594.837	9396.202
594.965	9469.894
595.093	9408.644
595.221	9474.490
595.349	9457.587
595.477	9484.260
595.605	9505.375
595.733	9517.490
595.862	9530.981
595.990	9558.577
596.118	9588.298
596.246	9623.923
596.374	9590.731
596.502	9593.635
596.630	9596.115
596.758	9604.615
596.887	9577.087
597.015	9564.192
597.143	9595.058
597.271	9639.635
597.399	9666.606
597.527	9628.846
597.655	9646.808
597.783	9650.913
597.912	9656.356
598.040	9696.865
598.168	9636.606
598.296	9607.481
598.424	9801.202
598.552	9647.317
598.680	9691.587
598.808	9717.529
598.937	9662.106
599.065	9678.952
599.193	9677.260
599.321	9692.750
599.449	9631.654
599.577	9639.413
599.705	9664.990
599.833	9640.577
599.962	9624.558
600.090	9629.308
600.218	9625.231
600.346	9613.837
600.474	9598.865
600.602	9588.538
600.730	9597.250
600.858	9592.760
600.987	9639.096
601.115	9598.510
601.243	9658.856
601.371	9703.885
601.499	9694.423
601.627	9649.712
601.755	9659.019
601.883	9677.192
602.012	9600.673
602.140	9677.375
602.268	9663.538
602.396	9795.413
602.524	9660.394
602.652	9743.115
602.780	9741.346
602.908	9762.365
603.037	9807.558
603.165	9786.654
603.293	9814.615
603.421	9813.750
603.549	9846.192
603.677	9896.106
603.805	9880.548
603.933	9912.442
604.062	9968.519
604.190	10044.654
604.318	10028.404
604.446	9961.385
604.574	10078.750
604.702	10084.587
604.830	10070.548
604.958	10086.663
605.087	10138.760
605.215	10184.837
605.343	10282.106
605.471	10222.817
605.599	10252.558
605.727	10359.962
605.855	10307.394
605.983	10344.519
606.112	10387.538
606.240	10369.202
606.368	10373.048
606.496	10351.471
606.624	10460.904
606.752	10379.298
606.880	10443.038
607.008	10402.981
607.137	10427.288
607.265	10513.865
607.393	10451.971
607.521	10547.240
607.649	10442.346
607.777	10462.365
607.905	10502.490
608.033	10411.702
608.162	10466.500
608.290	10445.712
608.418	10550.183
608.546	10534.433
608.674	10523.471
608.802	10452.183
608.930	10470.952
609.058	10406.952
609.187	10443.990
609.315	10408.692
609.443	10380.346
609.571	10525.144
609.699	10379.481
609.827	10468.827
609.955	10400.837
610.083	10341.144
610.212	10373.904
610.340	10321.192
610.468	10335.875
610.596	10347.654
610.724	10306.683
610.852	10379.471
610.980	10363.952
611.108	10275.865
611.237	10305.135
611.365	10307.587
611.493	10289.125
611.621	10280.846
611.749	10290.038
611.877	10359.433
612.005	10310.115
612.133	10307.173
612.262	10347.462
612.390	10376.721
612.518	10401.712
612.646	10347.827
612.774	10420.240
612.902	10451.510
613.030	10403.000
613.158	10391.750
613.287	10460.288
613.415	10357.433
613.543	10402.673
613.671	10457.288
613.799	10452.221
613.927	10464.250
614.055	10477.740
614.183	10503.615
614.312	10471.529
614.440	10601.856
614.568	10568.327
614.696	10602.279
614.824	10536.894
614.952	10646.846
615.080	10597.596
615.208	10664.308
615.337	10775.875
615.465	10662.510
615.593	10745.019
615.721	10708.356
615.849	10819.577
615.977	10755.837
616.105	10792.375
616.233	10771.279
616.362	10851.000
616.490	10842.269
616.618	10872.183
616.746	10990.029
616.874	10934.365
617.002	10940.058
617.130	10961.308
617.258	10887.856
617.387	10926.885
617.515	10966.385
617.643	10917.413
617.771	11023.163
617.899	10949.692
618.027	11021.192
618.155	11033.558
618.283	11024.587
618.412	11040.567
618.540	11081.365
618.668	11038.596
618.796	11051.548
618.924	10984.144
619.052	11045.000
619.180	10990.404
619.308	10992.173
619.437	11014.106
619.565	11002.635
619.693	10983.548
619.821	10994.231
619.949	10931.192
620.077	11031.250
620.205	11005.154
620.333	11014.856
620.462	10923.538
620.590	10998.010
620.718	10999.260
620.846	11001.779
620.974	10999.337
621.102	11036.346
621.230	10991.115
621.358	11118.212
621.487	10952.135
621.615	10978.712
621.743	10896.077
621.871	10991.144
621.999	10874.673
622.127	10912.038
622.255	10876.500
622.383	10879.933
622.512	10864.644
622.640	10859.240
622.768	10895.625
622.896	10974.000
623.024	10908.115
623.152	10832.394
623.280	10955.990
623.408	10848.990
623.537	10868.558
623.665	10815.538
623.793	10895.827
623.921	10860.433
624.049	10828.962
624.177	10807.202
624.305	10804.423
624.433	10820.962
624.562	10826.337
624.690	10945.038
624.818	10738.365
624.946	10770.067
625.074	10705.125
625.202	10746.702
625.330	10755.769
625.458	10877.404
625.587	10728.779
625.715	10795.394
625.843	10764.635
625.971	10750.798
626.099	10766.500
626.227	10715.990
626.355	10686.010
626.483	10800.654
626.612	10694.423
626.740	10756.971
626.868	10719.750
626.996	10753.337
627.124	10717.125
627.252	10667.250
627.380	10689.385
627.508	10682.481
627.637	10710.365
627.765	10746.981
627.893	10771.625
628.021	10832.567
628.149	10710.433
628.277	10781.096
628.405	10751.827
628.533	10774.740
628.662	10768.317
628.790	10841.385
628.918	10783.173
629.046	10900.106
629.174	10748.971
629.302	10823.067
629.430	10740.240
629.558	10818.587
629.687	10780.760
629.815	10847.740
629.943	10942.625
630.071	10859.058
630.199	10833.721
630.327	10909.029
630.455	10888.375
630.583	10901.471
630.712	10907.981
630.840	10951.221
630.968	10919.587
631.096	10913.125
631.224	10940.769
631.352	11073.856
631.480	10962.394
631.608	11121.798
631.737	10936.067
631.865	11072.394
631.993	11039.721
632.121	11156.183
632.249	11012.327
632.377	11005.442
632.505	10995.298
632.633	10999.481
632.762	10981.019
632.890	10970.231
633.018	11005.481
633.146	10974.702
633.274	10948.702
633.402	11002.519
633.530	10958.452
633.658	10916.096
633.787	10947.731
633.915	10910.519
634.043	10920.971
634.171	10954.144
634.299	10917.423
634.427	10896.529
634.555	11142.971
634.683	10898.298
634.812	10912.683
634.940	10824.260
635.068	10854.077
635.196	10825.019
635.324	10826.865
635.452	10784.442
635.580	10909.067
635.708	10769.962
635.837	10775.202
635.965	10754.971
636.093	10730.106
636.221	10700.837
636.349	10651.962
636.477	10676.365
636.605	10664.692
636.733	10634.471
636.862	10626.625
636.990	10634.413
637.118	10616.779
637.246	10548.327
637.374	10667.288
637.502	10512.260
637.630	10471.481
637.758	10476.952
637.887	10430.308
638.015	10534.173
638.143	10512.010
638.271	10403.567
638.399	10431.663
638.527	10342.462
638.655	10358.721
638.783	10335.192
638.912	10395.510
639.040	10303.183
639.168	10280.885
639.296	10234.577
639.424	10318.721
639.552	10234.413
639.680	10267.702
639.808	10234.942
639.937	10212.606
640.065	10166.913
640.193	10173.058
640.321	10256.529
640.449	10222.231
640.577	10141.837
640.705	10132.904
640.833	10144.058
640.962	10212.135
641.090	10072.933
641.218	10079.202
641.346	10204.721
641.474	10102.423
641.602	10077.327
641.730	10061.635
641.858	10034.577
641.987	10032.971
642.115	10216.298
642.243	10057.135
642.371	10207.894
642.499	10049.096
642.627	10099.538
642.755	10003.490
642.883	10032.577
643.012	10020.942
643.140	10054.731
643.268	10049.702
643.396	9966.442
643.524	9992.385
643.652	10093.260
643.780	9972.260
643.908	9972.913
644.037	10085.481
644.165	10056.894
644.293	10119.106
644.421	9923.817
644.549	9963.567
644.677	10026.538
644.805	9925.856
644.933	9913.817
645.062	9912.058
645.190	10066.106
645.318	9959.077
645.446	9876.625
645.574	9860.000
645.702	9899.404
645.830	9901.115
645.958	9846.904
646.087	9814.337
646.215	9778.087
646.343	9771.962
646.471	9980.808
646.599	9782.365
646.727	9769.567
646.855	9808.923
646.983	9760.683
647.112	9833.202
647.240	9729.635
647.368	9796.654
647.496	9753.769
647.624	9731.885
647.752	9719.740
647.880	9674.144
648.008	9684.087
648.137	9725.462
648.265	9642.087
648.393	9726.413
648.521	9634.154
648.649	9732.404
648.777	9642.875
648.905	9604.769
649.033	9670.288
649.162	9544.452
649.290	9482.913
649.418	9482.846
649.546	9606.779
649.674	9485.788
649.802	9439.490
649.930	9385.875
650.058	9367.423
650.187	9414.615
650.315	9355.721
650.443	9343.067
650.571	9278.298
650.699	9263.029
650.827	9273.163
650.955	9223.010
651.083	9298.154
651.212	9168.721
651.340	9228.346
651.468	9132.952
651.596	9157.567
651.724	9119.606
651.852	9080.096
651.980	9113.462
652.108	9076.644
652.237	9083.346
652.365	9030.250
652.493	9017.240
652.621	8972.231
652.749	8983.500
652.877	8975.212
653.005	8997.769
653.133	8913.163
653.262	8897.760
653.390	8913.510
653.518	9008.019
653.646	8827.192
653.774	8825.558
653.902	8906.048
654.030	8865.000
654.158	8786.760
654.287	8823.106
654.415	8802.385
654.543	8835.529
654.671	8742.923
654.799	8755.635
654.927	8722.625
655.055	8666.221
655.183	8680.173
655.312	8671.404
655.440	8624.885
655.568	8626.288
655.696	8670.654
655.824	8623.913
655.952	8592.692
656.080	8542.952
656.208	8554.962
656.337	8586.875
656.465	8721.510
656.593	8516.125
656.721	8563.625
656.849	8612.077
656.977	8407.875
657.105	8472.413
657.233	8469.683
657.362	8527.423
657.490	8450.692
657.618	8423.019
657.746	8397.750
657.874	8321.654
658.002	8273.490
658.130	8265.596
658.258	8267.183
658.387	8187.135
658.515	8222.260
658.643	8200.019
658.771	8235.721
658.899	8143.990
659.027	8167.346
659.155	8129.317
659.283	8073.317
659.412	8092.760
659.540	8099.510
659.668	8128.029
659.796	8156.462
659.924	8121.288
660.052	8171.192
660.180	8103.337
660.308	8144.615
660.437	8113.712
660.565	8057.240
660.693	7956.827
660.821	8156.087
660.949	7986.442
661.077	8004.635
661.205	8117.519
661.333	7968.279
661.462	7883.087
661.590	8003.673
661.718	7922.817
661.846	7900.788
661.974	7858.606
662.102	7877.038
662.230	7880.250
662.358	7739.413
662.487	7820.846
662.615	7791.952
662.743	7809.538
662.871	7761.942
662.999	7681.212
663.127	7694.606
663.255	7699.837
663.383	7834.394
663.512	7645.250
663.640	7681.519
663.768	7723.019
663.896	7610.913
664.024	7642.981
664.152	7610.990
664.280	7660.365
664.408	7561.327
664.537	7559.625
664.665	7545.500
664.793	7556.538
664.921	7527.029
665.049	7573.087
665.177	7480.308
665.305	7487.971
665.433	7491.231
665.562	7631.048
665.690	7498.587
665.818	7616.452
665.946	7391.221
666.074	7406.923
666.202	7395.125
666.330	7336.087
666.458	7779.192
666.587	7346.192
666.715	7317.442
666.843	7294.298
666.971	7306.962
667.099	7333.154
667.227	7373.423
667.355	7342.308
667.483	7258.173
667.612	7283.971
667.740	7241.202
667.868	7197.404
667.996	7193.798
668.124	7243.519
668.252	7293.510
668.380	7145.221
668.508	7176.692
668.637	7156.740
668.765	7164.240
668.893	7129.490
669.021	7042.510
669.149	7114.308
669.277	7027.202
669.405	7130.433
669.533	7092.798
669.662	7014.048
669.790	6985.712
669.918	7014.471
670.046	7129.279
670.174	6894.990
670.302	6906.856
670.430	6872.288
670.558	6951.423
670.687	7055.856
670.815	6863.058
670.943	6902.731
671.071	6786.558
671.199	6754.221
671.327	6790.096
671.455	6781.500
671.583	6755.769
671.712	6723.250
671.840	6771.202
671.968	6876.385
672.096	6865.702
672.224	6629.827
672.352	6629.971
672.480	6581.567
672.608	6653.231
672.737	6582.423
672.865	6533.173
672.993	6548.154
673.121	6536.894
673.249	6521.846
673.377	6453.375
673.505	6444.510
673.633	6506.846
673.762	6402.240
673.890	6458.740
674.018	6441.260
674.146	6402.587
674.274	6387.269
674.402	6430.635
674.530	6349.952
674.658	6325.375
674.787	6324.471
674.915	6421.702
675.043	6295.817
675.171	6292.875
675.299	6236.192
675.427	6211.904
675.555	6186.288
675.683	6210.558
675.812	6162.548
675.940	6142.885
676.068	6114.760
676.196	6150.058
676.324	6073.481
676.452	6032.856
676.580	6028.817
676.708	6023.365
676.837	5990.625
676.965	6090.240
677.093	6130.154
677.221	5982.106
677.349	5925.423
677.477	6011.750
677.605	5880.462
677.733	5910.077
677.862	5909.202
677.990	5867.587
678.118	5950.058
678.246	5838.962
678.374	5901.067
678.502	5817.971
678.630	5768.356
678.758	5783.106
678.887	5902.058
679.015	5698.702
679.143	5677.404
679.271	5684.654
679.399	5659.356
679.527	5677.038
679.655	5724.067
679.783	5613.144
679.912	5589.625
680.040	5782.856
680.168	5586.212
680.296	5596.471
680.424	5536.404
680.552	5556.538
680.680	5526.654
680.808	5513.913
680.937	5464.692
681.065	5522.577
681.193	5446.163
681.321	5411.298
681.449	5476.654
681.577	5423.433
681.705	5385.856
681.833	5430.663
681.962	5385.769
682.090	5338.827
682.218	5381.029
682.346	5346.779
682.474	5304.452
682.602	5318.337
682.730	5385.548
682.858	5259.029
682.987	5276.548
683.115	5298.087
683.243	5244.663
683.371	5240.923
683.499	5213.740
683.627	5260.760
683.755	5198.692
683.883	5172.067
684.012	5183.654
684.140	5133.538
684.268	5137.115
684.396	5214.865
684.524	5116.721
684.652	5121.260
684.780	5132.356
684.908	5128.538
685.037	5121.817
685.165	5082.788
685.293	5141.529
685.421	5077.481
685.549	5057.587
685.677	4981.596
685.805	5070.279
685.933	5006.519
686.062	5006.183
686.190	4974.250
686.318	4964.548
686.446	4916.279
686.574	4887.154
686.702	4965.154
686.830	4892.279
686.958	4966.635
687.087	4841.654
687.215	4858.615
687.343	4861.558
687.471	4991.779
687.599	4764.231
687.727	4802.327
687.855	4772.135
687.983	4735.817
688.112	4804.462
688.240	4748.952
688.368	4752.510
688.496	4697.933
688.624	4678.183
688.752	4833.558
688.880	4667.135
689.008	4659.702
689.137	4653.404
689.265	4614.827
689.393	4598.500
689.521	4607.856
689.649	4692.048
689.777	4613.337
689.905	4654.029
690.033	4539.308
690.162	4525.798
690.290	4572.356
690.418	4507.875
690.546	4535.385
690.674	4537.837
690.802	4532.779
690.930	4487.529
691.058	4475.519
691.187	4419.875
691.315	4403.029
691.443	4419.481
691.571	4433.308
691.699	4354.683
691.827	4376.202
691.955	4340.683
692.083	4343.288
692.212	4337.154
692.340	4337.135
692.468	4361.279
692.596	4344.423
692.724	4273.163
692.852	4298.231
692.980	4301.404
693.108	4332.644
693.237	4240.327
693.365	4222.077
693.493	4218.548
693.621	4218.519
693.749	4174.760
693.877	4218.221
694.005	4137.971
694.133	4129.067
694.262	4208.519
694.390	4078.971
694.518	4101.587
694.646	4083.115
694.774	4047.827
694.902	4037.625
695.030	4030.337
695.158	4030.981
695.287	4006.212
695.415	4004.087
695.543	3983.856
695.671	3937.106
695.799	4040.798
695.927	3949.913
696.055	3954.885
696.183	3888.067
696.312	4067.577
696.440	3925.721
696.568	3919.058
696.696	3832.837
696.824	3812.115
696.952	3793.308
697.080	3818.019
697.208	3776.952
697.337	3781.115
697.465	3769.933
697.593	3721.760
697.721	3821.923
697.849	3690.615
697.977	3729.317
698.105	3757.942
698.233	3701.192
698.362	3645.327
698.490	3774.288
698.618	3620.837
698.746	3602.885
698.874	3682.798
699.002	3623.010
699.130	3631.587
699.258	3592.413
699.387	3528.837
699.515	3569.337
699.643	3572.856
699.771	3634.596
699.899	3513.106
700.027	3473.240
700.155	3532.394
700.283	3419.981
700.412	3434.058
700.540	3463.962
700.668	3524.644
700.796	3406.769
700.924	3420.769
701.052	3444.077
701.180	3442.817
701.308	3354.192
701.437	3318.125
701.565	3326.837
701.693	3374.010
701.821	3551.067
701.949	3282.731
702.077	3287.644
702.205	3381.356
702.333	3293.433
702.462	3248.048
702.590	3317.385
702.718	3208.510
702.846	3401.365
702.974	3174.894
703.102	3194.721
703.230	3217.683
703.358	3160.625
703.487	3169.606
703.615	3143.587
703.743	3142.183
703.871	3119.827
703.999	3111.327
704.127	3095.365
704.255	3062.683
704.383	3092.192
704.512	3146.894
704.640	3093.337
704.768	3155.971
704.896	3047.654
705.024	2961.298
705.152	3007.144
705.280	3051.269
705.408	2960.240
705.537	2954.115
705.665	2962.529
705.793	2932.942
705.921	2935.115
706.049	2886.712
706.177	2935.923
706.305	2867.250
706.433	2925.452
706.562	2880.433
706.690	2902.000
706.818	2887.538
706.946	2839.144
707.074	2815.365
707.202	2787.221
707.330	2804.154
707.458	2779.635
707.587	2752.952
707.715	2794.288
707.843	2782.279
707.971	2783.606
708.099	2720.308
708.227	2711.346
708.355	2700.933
708.483	2686.817
708.612	2714.904
708.740	2655.779
708.868	2660.452
708.996	2719.077
709.124	2709.923
709.252	2669.702
709.380	2672.019
709.508	2613.856
709.637	2654.038
709.765	2627.038
709.893	2660.798
710.021	2591.365
710.149	2694.798
710.277	2578.125
710.405	2601.663
710.533	2595.231
710.662	2562.712
710.790	2669.702
710.918	2555.221
711.046	2584.385
711.174	2535.038
711.302	2570.971
711.430	2535.337
711.558	2565.875
711.687	2549.250
711.815	2525.337
711.943	2507.904
712.071	2525.740
712.199	2519.779
712.327	2542.625
712.455	2508.462
712.583	2542.096
712.712	2482.750
712.840	2491.683
712.968	2479.471
713.096	2468.654
713.224	2450.260
713.352	2445.615
713.480	2449.933
713.608	2444.058
713.737	2413.231
713.865	2406.750
713.993	2423.385
714.121	2394.019
714.249	2406.394
714.377	2395.038
714.505	2396.385
714.633	2373.423
714.762	2352.413
714.890	2368.990
715.018	2342.250
715.146	2347.615
715.274	2329.067
715.402	2325.490
715.530	2295.962
715.658	2290.202
715.787	2289.038
715.915	2300.269
716.043	2303.923
716.171	2257.048
716.299	2235.942
716.427	2264.952
716.555	2245.000
716.683	2247.904
716.812	2230.740
716.940	2237.635
717.068	2225.971
717.196	2210.827
717.324	2213.269
717.452	2193.837
717.580	2210.769
717.708	2165.635
717.837	2166.413
717.965	2143.490
718.093	2168.981
718.221	2145.769
718.349	2147.750
718.477	2145.481
718.605	2140.606
718.733	2123.250
718.862	2124.644
718.990	2126.894
719.118	2128.423
719.246	2092.837
719.374	2083.654
719.502	2087.577
719.630	2083.010
719.758	2051.346
719.887	2062.029
720.015	2046.683
720.143	2053.885
720.271	2023.413
720.399	2040.519
720.527	2021.490
720.655	2020.837
720.783	2007.529
720.912	1994.740
721.040	1977.788
721.168	1998.462
721.296	1950.817
721.424	1972.317
721.552	1955.481
721.680	1940.923
721.808	1954.654
721.937	1949.721
722.065	1937.769
722.193	1931.808
722.321	1918.712
722.449	1914.923
722.577	1892.260
722.705	1892.462
722.833	1882.692
722.962	1875.462
723.090	1856.981
723.218	1840.260
723.346	1851.375
723.474	1838.962
723.602	1825.587
723.730	1820.308
723.858	1826.365
723.987	1837.058
724.115	1829.096
724.243	1826.183
724.371	1783.288
724.499	1811.490
