sample7u_at_750.00nm_cut_at_1060.50Y_01.dat
19.06.2023
11:10:35
cut middle at Y: 1060.50
top cursor: 1109 down cursor: 1012 mean of: 97 lines , 2560 datapoints
wavelength(nm)	intensity[arb. units]
585.996	1996.124
586.124	1922.979
586.252	1911.144
586.380	1915.186
586.508	1920.289
586.637	1921.041
586.765	1934.196
586.893	1933.340
587.021	1925.866
587.149	1944.722
587.277	1940.474
587.405	1947.402
587.533	1932.340
587.662	1947.711
587.790	1954.660
587.918	1949.227
588.046	1956.577
588.174	1957.247
588.302	1963.711
588.430	1955.670
588.558	1952.773
588.687	1975.845
588.815	1984.309
588.943	1994.165
589.071	1971.072
589.199	1983.546
589.327	1981.474
589.455	1968.773
589.583	1990.309
589.712	1976.041
589.840	1987.804
589.968	1974.206
590.096	1991.464
590.224	1993.000
590.352	2001.814
590.480	1991.196
590.608	1994.340
590.737	1983.629
590.865	1996.082
590.993	1991.773
591.121	2005.227
591.249	2016.732
591.377	1996.433
591.505	2001.763
591.633	2008.402
591.762	2016.722
591.890	2017.608
592.018	2018.722
592.146	2010.526
592.274	2039.485
592.402	2019.732
592.530	2017.608
592.658	2022.907
592.787	2028.546
592.915	2035.165
593.043	2044.402
593.171	2033.289
593.299	2051.423
593.427	2042.763
593.555	2056.835
593.683	2045.649
593.812	2062.186
593.940	2065.361
594.068	2060.423
594.196	2094.093
594.324	2065.289
594.452	2100.794
594.580	2077.670
594.708	2096.608
594.837	2110.206
594.965	2129.577
595.093	2102.938
595.221	2115.361
595.349	2126.021
595.477	2128.093
595.605	2124.557
595.733	2155.124
595.862	2145.948
595.990	2146.959
596.118	2151.804
596.246	2161.412
596.374	2154.041
596.502	2178.371
596.630	2176.567
596.758	2164.227
596.887	2183.969
597.015	2196.670
597.143	2162.887
597.271	2176.454
597.399	2186.464
597.527	2201.268
597.655	2198.567
597.783	2192.299
597.912	2195.691
598.040	2199.753
598.168	2197.371
598.296	2195.268
598.424	2186.433
598.552	2190.753
598.680	2177.155
598.808	2187.515
598.937	2198.278
599.065	2205.804
599.193	2197.082
599.321	2163.515
599.449	2199.557
599.577	2202.474
599.705	2197.258
599.833	2196.093
599.962	2186.680
600.090	2188.010
600.218	2194.948
600.346	2221.381
600.474	2202.938
600.602	2203.361
600.730	2195.361
600.858	2219.309
600.987	2215.443
601.115	2200.278
601.243	2208.619
601.371	2220.598
601.499	2235.247
601.627	2228.680
601.755	2240.918
601.883	2237.588
602.012	2255.680
602.140	2245.485
602.268	2256.969
602.396	2253.691
602.524	2265.134
602.652	2281.258
602.780	2282.567
602.908	2289.000
603.037	2299.866
603.165	2302.979
603.293	2320.330
603.421	2303.392
603.549	2322.485
603.677	2339.722
603.805	2328.969
603.933	2356.856
604.062	2358.268
604.190	2357.237
604.318	2357.959
604.446	2385.289
604.574	2383.897
604.702	2394.546
604.830	2392.062
604.958	2403.093
605.087	2421.546
605.215	2421.979
605.343	2423.381
605.471	2433.577
605.599	2444.258
605.727	2437.113
605.855	2447.701
605.983	2443.402
606.112	2466.546
606.240	2479.639
606.368	2465.680
606.496	2509.485
606.624	2469.175
606.752	2475.278
606.880	2510.515
607.008	2572.505
607.137	2528.732
607.265	2494.175
607.393	2500.670
607.521	2555.485
607.649	2491.299
607.777	2495.392
607.905	2525.701
608.033	2512.144
608.162	2487.103
608.290	2525.196
608.418	2519.722
608.546	2521.928
608.674	2540.536
608.802	2509.814
608.930	2514.412
609.058	2506.742
609.187	2534.237
609.315	2535.361
609.443	2498.856
609.571	2521.711
609.699	2488.433
609.827	2508.907
609.955	2528.155
610.083	2500.113
610.212	2500.887
610.340	2509.485
610.468	2536.103
610.596	2548.268
610.724	2545.443
610.852	2510.629
610.980	2528.577
611.108	2560.412
611.237	2511.186
611.365	2524.742
611.493	2519.062
611.621	2528.907
611.749	2534.959
611.877	2539.577
612.005	2555.196
612.133	2569.938
612.262	2553.701
612.390	2560.660
612.518	2580.381
612.646	2640.784
612.774	2576.031
612.902	2585.351
613.030	2576.062
613.158	2619.041
613.287	2593.351
613.415	2588.082
613.543	2596.392
613.671	2605.835
613.799	2603.392
613.927	2639.526
614.055	2625.649
614.183	2743.268
614.312	2630.969
614.440	2715.113
614.568	2644.505
614.696	2633.990
614.824	2763.124
614.952	2685.887
615.080	2641.412
615.208	2714.660
615.337	2710.289
615.465	2699.691
615.593	2703.124
615.721	2738.629
615.849	2729.577
615.977	2724.309
616.105	2754.897
616.233	2722.515
616.362	2779.990
616.490	2715.639
616.618	2694.990
616.746	2799.680
616.874	2792.103
617.002	2760.134
617.130	2791.041
617.258	2857.876
617.387	2750.495
617.515	2727.505
617.643	2750.649
617.771	2788.443
617.899	2779.876
618.027	2746.835
618.155	2863.412
618.283	2744.948
618.412	2781.134
618.540	2854.876
618.668	2789.247
618.796	2771.990
618.924	2868.907
619.052	2777.454
619.180	2778.639
619.308	2785.753
619.437	2826.691
619.565	2818.258
619.693	2784.144
619.821	2819.794
619.949	2799.629
620.077	2831.856
620.205	2835.330
620.333	2846.433
620.462	2840.165
620.590	2877.371
620.718	2821.660
620.846	2892.536
620.974	2869.361
621.102	2872.753
621.230	2825.175
621.358	2941.835
621.487	2807.887
621.615	2871.804
621.743	2839.814
621.871	2880.804
621.999	2896.196
622.127	2851.701
622.255	2834.175
622.383	2871.134
622.512	2861.464
622.640	2976.010
622.768	2856.289
622.896	2864.433
623.024	2871.247
623.152	2931.670
623.280	2936.948
623.408	2832.835
623.537	2870.000
623.665	2829.062
623.793	2883.268
623.921	2874.598
624.049	2851.134
624.177	2872.371
624.305	2901.031
624.433	2897.938
624.562	2870.320
624.690	2913.299
624.818	2914.113
624.946	3019.103
625.074	2890.804
625.202	2843.567
625.330	2847.103
625.458	2938.196
625.587	2875.330
625.715	2921.959
625.843	2979.443
625.971	2895.371
626.099	2888.670
626.227	2876.072
626.355	2872.845
626.483	2976.340
626.612	2864.144
626.740	2865.691
626.868	2916.216
626.996	2875.845
627.124	2879.505
627.252	2857.536
627.380	2887.433
627.508	2889.062
627.637	2897.196
627.765	2886.536
627.893	2905.072
628.021	2899.732
628.149	2884.608
628.277	2920.196
628.405	2961.258
628.533	2892.825
628.662	2954.031
628.790	2949.299
628.918	2920.670
629.046	2963.216
629.174	2923.361
629.302	3018.309
629.430	2907.175
629.558	2963.010
629.687	2943.340
629.815	2957.206
629.943	3002.474
630.071	2983.959
630.199	2970.268
630.327	2970.155
630.455	2949.907
630.583	3006.948
630.712	3002.464
630.840	2982.454
630.968	3002.649
631.096	2968.206
631.224	2981.608
631.352	3016.454
631.480	3002.000
631.608	3048.423
631.737	3047.505
631.865	3178.629
631.993	3015.577
632.121	3124.856
632.249	3081.381
632.377	3065.742
632.505	3034.753
632.633	2978.825
632.762	3041.268
632.890	3096.165
633.018	3001.835
633.146	3041.155
633.274	3052.619
633.402	3037.742
633.530	2964.629
633.658	3128.041
633.787	2981.052
633.915	3040.794
634.043	3014.722
634.171	3002.567
634.299	3042.113
634.427	3088.722
634.555	3105.876
634.683	3009.237
634.812	3006.505
634.940	3004.124
635.068	2973.598
635.196	3000.093
635.324	3003.990
635.452	3065.309
635.580	3009.835
635.708	2956.639
635.837	3023.649
635.965	3013.794
636.093	2976.103
636.221	2958.433
636.349	3009.309
636.477	2932.567
636.605	3112.423
636.733	2912.206
636.862	2921.979
636.990	2988.010
637.118	2988.680
637.246	2979.897
637.374	2981.227
637.502	2930.093
637.630	2905.351
637.758	2952.918
637.887	2881.526
638.015	2948.351
638.143	2931.619
638.271	2913.979
638.399	2921.247
638.527	2884.753
638.655	2900.577
638.783	3021.289
638.912	2944.753
639.040	2928.495
639.168	2938.330
639.296	2881.247
639.424	3006.876
639.552	2874.289
639.680	2903.526
639.808	2930.577
639.937	2848.485
640.065	2862.567
640.193	2939.732
640.321	2882.124
640.449	2927.041
640.577	2925.660
640.705	2880.268
640.833	2963.041
640.962	2889.000
641.090	2857.093
641.218	2846.557
641.346	2873.649
641.474	2896.278
641.602	2866.959
641.730	2867.237
641.858	2846.505
641.987	2890.227
642.115	2877.969
642.243	2889.897
642.371	2918.278
642.499	2878.670
642.627	2903.763
642.755	2904.278
642.883	2926.237
643.012	2871.196
643.140	2843.907
643.268	2875.959
643.396	2878.144
643.524	2976.608
643.652	2888.165
643.780	2872.124
643.908	2869.412
644.037	2987.402
644.165	2884.144
644.293	2921.588
644.421	2837.196
644.549	2925.918
644.677	2888.289
644.805	2926.155
644.933	2869.649
645.062	2862.351
645.190	2912.072
645.318	2968.443
645.446	2892.433
645.574	2870.247
645.702	2886.629
645.830	3012.979
645.958	2846.784
646.087	2994.515
646.215	2848.918
646.343	3004.330
646.471	2957.876
646.599	2921.711
646.727	2849.289
646.855	2856.206
646.983	2890.258
647.112	2850.144
647.240	2979.825
647.368	2870.608
647.496	2884.216
647.624	2812.526
647.752	2810.216
647.880	2821.701
648.008	2822.000
648.137	2813.629
648.265	2791.742
648.393	2835.000
648.521	2821.474
648.649	2844.485
648.777	2822.340
648.905	2770.825
649.033	2812.608
649.162	2800.629
649.290	2778.763
649.418	2823.629
649.546	2810.134
649.674	2800.804
649.802	2795.701
649.930	2875.990
650.058	2716.938
650.187	2760.412
650.315	2728.897
650.443	2791.320
650.571	2739.072
650.699	2718.959
650.827	2691.041
650.955	2722.361
651.083	2719.113
651.212	2753.103
651.340	2757.732
651.468	2716.969
651.596	2699.258
651.724	2677.113
651.852	2683.691
651.980	2658.031
652.108	2740.845
652.237	2706.021
652.365	2723.495
652.493	2659.402
652.621	2652.351
652.749	2699.423
652.877	2626.196
653.005	2653.381
653.133	2621.505
653.262	2651.526
653.390	2603.711
653.518	2702.474
653.646	2618.361
653.774	2734.536
653.902	2630.763
654.030	2580.072
654.158	2595.402
654.287	2579.361
654.415	2604.608
654.543	2591.969
654.671	2608.763
654.799	2577.505
654.927	2561.969
655.055	2544.082
655.183	2556.454
655.312	2558.433
655.440	2546.320
655.568	2527.423
655.696	2585.113
655.824	2585.082
655.952	2549.814
656.080	2514.794
656.208	2611.660
656.337	2529.474
656.465	2530.072
656.593	2535.897
656.721	2514.711
656.849	2515.278
656.977	2501.000
657.105	2487.835
657.233	2485.907
657.362	2486.711
657.490	2471.351
657.618	2468.639
657.746	2474.660
657.874	2448.505
658.002	2452.670
658.130	2463.392
658.258	2441.278
658.387	2455.433
658.515	2415.247
658.643	2440.464
658.771	2430.948
658.899	2426.763
659.027	2421.320
659.155	2413.454
659.283	2416.732
659.412	2390.113
659.540	2399.392
659.668	2388.536
659.796	2375.701
659.924	2392.309
660.052	2376.876
660.180	2340.196
660.308	2372.505
660.437	2345.670
660.565	2350.825
660.693	2333.443
660.821	2336.649
660.949	2347.464
661.077	2331.093
661.205	2329.835
661.333	2312.309
661.462	2317.557
661.590	2316.227
661.718	2299.918
661.846	2289.887
661.974	2299.165
662.102	2302.660
662.230	2283.526
662.358	2272.753
662.487	2281.206
662.615	2262.093
662.743	2267.103
662.871	2277.732
662.999	2263.474
663.127	2263.948
663.255	2260.175
663.383	2269.557
663.512	2256.505
663.640	2258.887
663.768	2236.443
663.896	2232.928
664.024	2232.856
664.152	2230.577
664.280	2236.763
664.408	2205.134
664.537	2215.278
664.665	2224.433
664.793	2196.041
664.921	2187.021
665.049	2202.670
665.177	2205.423
665.305	2185.485
665.433	2188.165
665.562	2192.639
665.690	2187.876
665.818	2180.381
665.946	2175.134
666.074	2166.969
666.202	2166.371
666.330	2152.258
666.458	2158.629
666.587	2164.660
666.715	2175.485
666.843	2160.320
666.971	2136.691
667.099	2156.299
667.227	2159.495
667.355	2145.887
667.483	2128.216
667.612	2131.340
667.740	2127.588
667.868	2134.711
667.996	2124.969
668.124	2123.464
668.252	2119.959
668.380	2106.134
668.508	2121.454
668.637	2096.629
668.765	2107.608
668.893	2090.773
669.021	2088.990
669.149	2084.165
669.277	2074.361
669.405	2061.732
669.533	2071.268
669.662	2062.031
669.790	2062.320
669.918	2060.320
670.046	2035.907
670.174	2041.124
670.302	2041.804
670.430	2015.052
670.558	2015.763
670.687	2028.742
670.815	2009.124
670.943	2018.103
671.071	2001.608
671.199	2005.784
671.327	1986.897
671.455	1979.206
671.583	1987.794
671.712	1968.309
671.840	1953.959
671.968	1949.907
672.096	1949.392
672.224	1941.072
672.352	1942.845
672.480	1937.258
672.608	1928.711
672.737	1919.381
672.865	1908.567
672.993	1893.598
673.121	1905.485
673.249	1903.258
673.377	1881.691
673.505	1872.041
673.633	1857.515
673.762	1866.340
673.890	1864.237
674.018	1849.124
674.146	1845.804
674.274	1839.845
674.402	1827.742
674.530	1825.897
674.658	1831.526
674.787	1807.918
674.915	1800.979
675.043	1791.443
675.171	1798.299
675.299	1798.495
675.427	1782.505
675.555	1772.526
675.683	1759.928
675.812	1762.990
675.940	1730.247
676.068	1755.763
676.196	1731.485
676.324	1741.814
676.452	1733.619
676.580	1719.175
676.708	1712.299
676.837	1722.443
676.965	1698.186
677.093	1701.557
677.221	1690.309
677.349	1669.763
677.477	1678.206
677.605	1665.804
677.733	1677.474
677.862	1659.485
677.990	1665.732
678.118	1645.598
678.246	1639.052
678.374	1627.237
678.502	1638.412
678.630	1626.113
678.758	1627.031
678.887	1618.691
679.015	1619.278
679.143	1606.330
679.271	1615.402
679.399	1590.887
679.527	1574.268
679.655	1587.907
679.783	1570.392
679.912	1575.649
680.040	1569.773
680.168	1560.103
680.296	1551.289
680.424	1563.165
680.552	1550.412
680.680	1542.804
680.808	1540.546
680.937	1527.258
681.065	1533.804
681.193	1513.948
681.321	1527.732
681.449	1514.629
681.577	1513.680
681.705	1502.165
681.833	1501.186
681.962	1491.897
682.090	1500.505
682.218	1497.784
682.346	1499.577
682.474	1477.773
682.602	1494.588
682.730	1474.866
682.858	1471.670
682.987	1479.495
683.115	1457.402
683.243	1458.289
683.371	1466.237
683.499	1458.907
683.627	1457.938
683.755	1449.876
683.883	1441.175
684.012	1440.433
684.140	1432.897
684.268	1436.186
684.396	1427.402
684.524	1434.814
684.652	1432.144
684.780	1437.670
684.908	1415.103
685.037	1415.309
685.165	1419.464
685.293	1410.722
685.421	1404.701
685.549	1395.907
685.677	1403.258
685.805	1392.660
685.933	1403.093
686.062	1384.680
686.190	1390.629
686.318	1396.371
686.446	1383.711
686.574	1377.959
686.702	1387.814
686.830	1372.598
686.958	1372.196
687.087	1376.742
687.215	1354.711
687.343	1366.649
687.471	1359.351
687.599	1355.907
687.727	1346.443
687.855	1342.804
687.983	1341.856
688.112	1342.062
688.240	1332.629
688.368	1339.608
688.496	1335.268
688.624	1331.598
688.752	1322.577
688.880	1321.825
689.008	1314.567
689.137	1316.278
689.265	1305.825
689.393	1292.619
689.521	1293.196
689.649	1298.278
689.777	1292.412
689.905	1290.990
690.033	1281.598
690.162	1272.155
690.290	1264.361
690.418	1264.021
690.546	1268.495
690.674	1262.691
690.802	1259.237
690.930	1260.938
691.058	1250.041
691.187	1236.619
691.315	1247.062
691.443	1240.969
691.571	1231.526
691.699	1218.639
691.827	1218.742
691.955	1216.402
692.083	1215.010
692.212	1204.588
692.340	1206.866
692.468	1198.454
692.596	1191.680
692.724	1181.309
692.852	1181.835
692.980	1186.155
693.108	1182.289
693.237	1168.052
693.365	1175.103
693.493	1167.536
693.621	1150.454
693.749	1159.423
693.877	1152.351
694.005	1143.134
694.133	1155.052
694.262	1143.052
694.390	1130.773
694.518	1123.412
694.646	1131.526
694.774	1130.134
694.902	1113.103
695.030	1135.299
695.158	1105.701
695.287	1107.361
695.415	1108.495
695.543	1100.619
695.671	1099.443
695.799	1084.577
695.927	1087.309
696.055	1080.794
696.183	1090.979
696.312	1085.041
696.440	1083.567
696.568	1068.124
696.696	1066.000
696.824	1065.907
696.952	1068.371
697.080	1052.309
697.208	1064.701
697.337	1043.031
697.465	1043.505
697.593	1041.773
697.721	1037.062
697.849	1037.722
697.977	1036.485
698.105	1025.474
698.233	1027.649
698.362	1012.918
698.490	1012.814
698.618	1017.619
698.746	1008.701
698.874	1010.423
699.002	1009.928
699.130	999.278
699.258	1009.454
699.387	995.526
699.515	989.619
699.643	1002.990
699.771	977.577
699.899	975.907
700.027	973.876
700.155	971.763
700.283	967.959
700.412	967.598
700.540	964.206
700.668	962.371
700.796	962.722
700.924	945.814
701.052	949.124
701.180	943.227
701.308	936.165
701.437	932.866
701.565	929.433
701.693	927.948
701.821	924.309
701.949	924.454
702.077	909.639
702.205	914.031
702.333	906.753
702.462	905.876
702.590	904.412
702.718	899.763
702.846	895.866
702.974	891.485
703.102	890.856
703.230	888.918
703.358	870.474
703.487	877.268
703.615	868.041
703.743	861.546
703.871	859.845
703.999	857.227
704.127	850.680
704.255	848.784
704.383	841.928
704.512	838.082
704.640	838.784
704.768	833.052
704.896	822.959
705.024	820.485
705.152	822.546
705.280	828.093
705.408	808.309
705.537	810.567
705.665	810.825
705.793	811.814
705.921	799.763
706.049	801.412
706.177	786.835
706.305	794.546
706.433	790.887
706.562	789.237
706.690	774.340
706.818	776.443
706.946	779.742
707.074	771.835
707.202	761.928
707.330	761.701
707.458	766.464
707.587	750.031
707.715	755.876
707.843	754.392
707.971	746.320
708.099	753.134
708.227	742.186
708.355	736.680
708.483	733.031
708.612	739.897
708.740	740.247
708.868	723.412
708.996	729.072
709.124	719.330
709.252	720.289
709.380	713.031
709.508	712.969
709.637	714.227
709.765	708.876
709.893	699.711
710.021	708.732
710.149	704.835
710.277	700.907
710.405	698.794
710.533	696.124
710.662	692.825
710.790	692.619
710.918	686.155
711.046	681.433
711.174	689.660
711.302	681.237
711.430	678.990
711.558	679.701
711.687	669.701
711.815	669.670
711.943	669.918
712.071	668.773
712.199	662.680
712.327	660.309
712.455	661.186
712.583	662.526
712.712	660.340
712.840	652.959
712.968	648.278
713.096	649.206
713.224	645.990
713.352	642.515
713.480	639.165
713.608	647.299
713.737	638.753
713.865	632.887
713.993	636.794
714.121	628.639
714.249	633.959
714.377	630.804
714.505	625.443
714.633	625.845
714.762	621.289
714.890	622.371
715.018	619.557
715.146	613.546
715.274	617.010
715.402	609.567
715.530	614.814
715.658	604.155
715.787	611.021
715.915	604.124
716.043	602.082
716.171	604.289
716.299	604.711
716.427	605.268
716.555	595.969
716.683	591.938
716.812	593.474
716.940	592.804
717.068	588.052
717.196	586.371
717.324	580.021
717.452	590.412
717.580	579.381
717.708	577.928
717.837	572.753
717.965	572.856
718.093	576.237
718.221	564.268
718.349	572.443
718.477	569.557
718.605	559.278
718.733	565.237
718.862	556.598
718.990	553.990
719.118	557.763
719.246	548.948
719.374	554.649
719.502	555.928
719.630	550.206
719.758	544.515
719.887	550.887
720.015	551.680
720.143	533.062
720.271	537.247
720.399	537.897
720.527	531.608
720.655	531.093
720.783	532.557
720.912	529.567
721.040	530.691
721.168	525.072
721.296	522.598
721.424	521.814
721.552	521.742
721.680	521.454
721.808	517.969
721.937	511.412
722.065	508.371
722.193	505.897
722.321	509.866
722.449	504.948
722.577	503.124
722.705	500.031
722.833	501.505
722.962	499.464
723.090	491.598
723.218	488.021
723.346	490.371
723.474	489.505
723.602	483.495
723.730	483.227
723.858	479.330
723.987	482.753
724.115	471.804
724.243	473.392
724.371	480.928
724.499	475.598
724.627	471.515
724.755	470.433
724.883	472.000
725.012	468.052
725.140	458.732
725.268	460.381
725.396	456.464
725.524	458.464
725.652	455.670
725.780	452.660
725.908	453.959
726.037	447.691
726.165	447.330
726.293	444.701
726.421	446.031
726.549	444.113
726.677	439.619
726.805	445.845
726.933	434.515
727.062	436.804
727.190	432.072
727.318	437.144
727.446	431.072
727.574	438.165
727.702	431.082
727.830	429.639
727.958	425.907
728.087	424.443
728.215	421.505
728.343	419.052
728.471	422.371
728.599	420.072
728.727	420.567
728.855	420.948
728.983	418.309
729.112	417.959
729.240	415.155
729.368	408.773
729.496	414.299
729.624	412.041
729.752	407.784
729.880	401.196
730.008	401.433
730.137	403.536
730.265	403.010
730.393	404.299
730.521	397.289
730.649	395.258
730.777	393.660
730.905	391.402
731.033	394.649
731.162	394.814
731.290	390.918
731.418	389.918
731.546	393.515
731.674	390.649
731.802	382.608
731.930	388.608
732.058	381.845
732.187	385.258
732.315	381.062
732.443	382.856
732.571	377.907
732.699	379.062
732.827	375.866
732.955	375.680
733.083	375.216
733.212	370.381
733.340	376.371
733.468	373.856
733.596	370.845
733.724	368.557
733.852	368.299
733.980	372.567
734.108	373.454
734.237	364.464
734.365	365.990
734.493	366.062
734.621	360.381
734.749	368.093
734.877	358.320
735.005	361.608
735.133	359.546
735.262	361.155
735.390	360.093
735.518	356.371
735.646	355.959
735.774	357.763
735.902	356.835
736.030	354.701
736.158	353.680
736.287	350.969
736.415	352.309
736.543	353.330
736.671	348.000
736.799	344.124
736.927	348.175
737.055	348.196
737.183	346.464
737.312	344.464
