sample7h_at_750.00nm_cut_at_1060.50Y_01.dat
19.06.2023
11:10:43
cut middle at Y: 1060.50
top cursor: 1109 down cursor: 1012 mean of: 97 lines , 2560 datapoints
wavelength(nm)	intensity[arb. units]
585.996	801.588
586.124	772.845
586.252	775.247
586.380	775.454
586.508	779.299
586.637	774.072
586.765	782.381
586.893	780.454
587.021	794.186
587.149	787.330
587.277	787.093
587.405	787.577
587.533	785.371
587.662	793.526
587.790	799.113
587.918	790.763
588.046	796.505
588.174	794.289
588.302	790.082
588.430	795.866
588.558	790.237
588.687	802.155
588.815	808.753
588.943	809.979
589.071	808.186
589.199	801.082
589.327	808.814
589.455	797.567
589.583	803.155
589.712	804.124
589.840	811.722
589.968	803.381
590.096	804.351
590.224	814.536
590.352	824.196
590.480	820.000
590.608	817.825
590.737	817.557
590.865	821.155
590.993	820.371
591.121	822.381
591.249	821.062
591.377	819.124
591.505	819.629
591.633	819.464
591.762	828.021
591.890	830.103
592.018	831.588
592.146	827.474
592.274	828.155
592.402	827.062
592.530	830.876
592.658	819.557
592.787	833.072
592.915	829.309
593.043	827.216
593.171	830.598
593.299	836.773
593.427	830.175
593.555	831.598
593.683	829.722
593.812	833.268
593.940	830.938
594.068	842.526
594.196	836.990
594.324	836.258
594.452	842.526
594.580	842.165
594.708	844.351
594.837	846.165
594.965	851.072
595.093	842.072
595.221	846.474
595.349	853.938
595.477	840.299
595.605	849.557
595.733	857.062
595.862	854.763
595.990	858.722
596.118	855.990
596.246	862.454
596.374	862.814
596.502	863.371
596.630	864.639
596.758	865.041
596.887	865.000
597.015	870.103
597.143	870.351
597.271	869.021
597.399	867.454
597.527	867.619
597.655	868.856
597.783	871.629
597.912	865.247
598.040	867.845
598.168	872.474
598.296	873.670
598.424	873.309
598.552	867.371
598.680	871.701
598.808	870.866
598.937	877.557
599.065	870.361
599.193	869.309
599.321	867.247
599.449	880.680
599.577	866.722
599.705	869.000
599.833	871.433
599.962	873.588
600.090	866.918
600.218	876.443
600.346	876.639
600.474	875.340
600.602	882.124
600.730	877.701
600.858	875.825
600.987	880.227
601.115	876.052
601.243	880.495
601.371	886.000
601.499	881.412
601.627	883.412
601.755	889.670
601.883	888.433
602.012	891.557
602.140	887.825
602.268	889.062
602.396	889.474
602.524	887.381
602.652	897.495
602.780	899.639
602.908	898.289
603.037	892.887
603.165	909.454
603.293	906.887
603.421	912.371
603.549	909.371
603.677	913.577
603.805	911.330
603.933	924.608
604.062	909.784
604.190	923.990
604.318	917.536
604.446	928.278
604.574	925.701
604.702	932.309
604.830	920.866
604.958	938.495
605.087	938.515
605.215	938.155
605.343	939.680
605.471	957.330
605.599	939.443
605.727	944.629
605.855	951.505
605.983	936.082
606.112	953.515
606.240	960.227
606.368	954.072
606.496	953.907
606.624	947.505
606.752	954.268
606.880	955.320
607.008	955.443
607.137	955.247
607.265	962.928
607.393	964.588
607.521	962.567
607.649	961.897
607.777	961.186
607.905	956.392
608.033	967.258
608.162	956.546
608.290	957.577
608.418	964.309
608.546	966.979
608.674	962.794
608.802	962.495
608.930	965.588
609.058	957.577
609.187	953.206
609.315	958.381
609.443	961.918
609.571	963.948
609.699	957.856
609.827	959.660
609.955	962.546
610.083	962.814
610.212	957.113
610.340	961.000
610.468	956.433
610.596	963.711
610.724	960.010
610.852	950.278
610.980	963.340
611.108	967.753
611.237	960.381
611.365	962.608
611.493	967.845
611.621	964.031
611.749	967.691
611.877	969.309
612.005	963.258
612.133	970.629
612.262	965.093
612.390	965.495
612.518	976.680
612.646	970.794
612.774	960.856
612.902	977.309
613.030	976.876
613.158	970.794
613.287	990.155
613.415	980.412
613.543	988.041
613.671	992.000
613.799	991.454
613.927	981.536
614.055	981.546
614.183	997.000
614.312	986.763
614.440	989.763
614.568	989.680
614.696	993.619
614.824	995.309
614.952	996.990
615.080	997.639
615.208	1001.938
615.337	1006.948
615.465	1002.876
615.593	1011.227
615.721	1009.515
615.849	1015.856
615.977	1004.155
616.105	1000.165
616.233	1006.577
616.362	1002.876
616.490	1011.649
616.618	1007.082
616.746	1014.103
616.874	1007.918
617.002	1017.052
617.130	1022.454
617.258	1011.701
617.387	1012.649
617.515	1015.443
617.643	1008.010
617.771	1012.660
617.899	1014.371
618.027	1011.701
618.155	1018.454
618.283	1013.722
618.412	1016.072
618.540	1021.856
618.668	1024.856
618.796	1014.588
618.924	1027.691
619.052	1022.237
619.180	1027.691
619.308	1028.526
619.437	1020.866
619.565	1023.309
619.693	1021.897
619.821	1029.794
619.949	1029.763
620.077	1024.258
620.205	1039.495
620.333	1025.814
620.462	1030.691
620.590	1039.742
620.718	1029.577
620.846	1038.732
620.974	1040.856
621.102	1033.072
621.230	1029.825
621.358	1031.701
621.487	1031.680
621.615	1029.649
621.743	1034.670
621.871	1035.680
621.999	1031.866
622.127	1035.289
622.255	1027.526
622.383	1037.897
622.512	1033.443
622.640	1031.526
622.768	1029.000
622.896	1027.443
623.024	1033.392
623.152	1039.247
623.280	1034.206
623.408	1033.784
623.537	1037.619
623.665	1032.990
623.793	1037.680
623.921	1031.753
624.049	1041.062
624.177	1035.268
624.305	1035.918
624.433	1033.619
624.562	1030.876
624.690	1033.041
624.818	1030.732
624.946	1040.660
625.074	1032.340
625.202	1034.010
625.330	1030.227
625.458	1034.124
625.587	1026.485
625.715	1030.588
625.843	1019.330
625.971	1028.351
626.099	1027.959
626.227	1036.546
626.355	1022.979
626.483	1036.278
626.612	1034.412
626.740	1029.021
626.868	1042.041
626.996	1035.052
627.124	1032.433
627.252	1024.567
627.380	1038.340
627.508	1029.340
627.637	1029.515
627.765	1028.959
627.893	1034.289
628.021	1025.577
628.149	1025.443
628.277	1040.134
628.405	1038.701
628.533	1032.608
628.662	1021.784
628.790	1034.113
628.918	1029.093
629.046	1031.804
629.174	1028.082
629.302	1030.495
629.430	1034.567
629.558	1035.299
629.687	1029.732
629.815	1027.320
629.943	1038.144
630.071	1031.186
630.199	1034.041
630.327	1023.010
630.455	1029.577
630.583	1036.753
630.712	1040.649
630.840	1033.144
630.968	1045.196
631.096	1043.392
631.224	1029.495
631.352	1027.804
631.480	1025.412
631.608	1037.804
631.737	1028.144
631.865	1047.495
631.993	1034.660
632.121	1041.196
632.249	1033.845
632.377	1048.371
632.505	1037.577
632.633	1033.320
632.762	1040.732
632.890	1041.485
633.018	1039.742
633.146	1035.742
633.274	1032.402
633.402	1028.237
633.530	1032.742
633.658	1036.918
633.787	1023.041
633.915	1032.320
634.043	1031.052
634.171	1032.412
634.299	1024.113
634.427	1023.948
634.555	1026.196
634.683	1028.206
634.812	1023.629
634.940	1025.814
635.068	1016.784
635.196	1021.887
635.324	1023.629
635.452	1016.361
635.580	1019.866
635.708	1013.680
635.837	1015.381
635.965	1013.474
636.093	1009.814
636.221	1006.124
636.349	1002.206
636.477	996.031
636.605	996.031
636.733	1004.969
636.862	998.959
636.990	994.979
637.118	995.825
637.246	993.206
637.374	989.536
637.502	992.835
637.630	1001.175
637.758	992.567
637.887	987.763
638.015	984.175
638.143	990.928
638.271	975.536
638.399	985.175
638.527	978.732
638.655	976.639
638.783	989.371
638.912	967.433
639.040	976.155
639.168	975.392
639.296	972.918
639.424	970.351
639.552	977.856
639.680	974.711
639.808	971.423
639.937	958.773
640.065	968.876
640.193	977.124
640.321	962.608
640.449	972.412
640.577	964.969
640.705	966.680
640.833	965.309
640.962	971.433
641.090	959.680
641.218	967.000
641.346	957.237
641.474	954.031
641.602	961.691
641.730	969.103
641.858	959.062
641.987	964.938
642.115	957.928
642.243	958.804
642.371	961.093
642.499	960.649
642.627	950.278
642.755	961.124
642.883	961.691
643.012	955.041
643.140	956.959
643.268	956.907
643.396	962.990
643.524	962.515
643.652	969.784
643.780	947.907
643.908	961.639
644.037	952.866
644.165	959.320
644.293	958.175
644.421	942.742
644.549	948.526
644.677	964.206
644.805	947.969
644.933	945.959
645.062	952.948
645.190	948.660
645.318	947.103
645.446	955.722
645.574	953.897
645.702	945.237
645.830	952.711
645.958	950.711
646.087	949.021
646.215	951.660
646.343	947.289
646.471	943.330
646.599	951.247
646.727	941.268
646.855	943.309
646.983	950.392
647.112	942.722
647.240	939.907
647.368	933.485
647.496	931.629
647.624	935.155
647.752	929.186
647.880	935.753
648.008	931.897
648.137	931.371
648.265	922.320
648.393	918.918
648.521	923.732
648.649	927.299
648.777	915.299
648.905	924.093
649.033	907.546
649.162	905.402
649.290	911.392
649.418	906.155
649.546	902.969
649.674	909.381
649.802	917.722
649.930	909.412
650.058	897.660
650.187	907.763
650.315	911.392
650.443	894.608
650.571	905.887
650.699	904.041
650.827	891.505
650.955	895.670
651.083	895.567
651.212	884.866
651.340	884.701
651.468	890.619
651.596	886.608
651.724	886.722
651.852	885.361
651.980	871.320
652.108	887.918
652.237	878.351
652.365	875.113
652.493	876.464
652.621	877.763
652.749	874.433
652.877	873.629
653.005	873.928
653.133	872.165
653.262	872.567
653.390	860.320
653.518	863.866
653.646	863.763
653.774	865.000
653.902	879.835
654.030	865.866
654.158	858.000
654.287	860.691
654.415	851.402
654.543	857.701
654.671	848.784
654.799	849.206
654.927	856.134
655.055	843.835
655.183	845.052
655.312	840.412
655.440	847.546
655.568	847.722
655.696	843.876
655.824	846.021
655.952	836.443
656.080	836.474
656.208	842.722
656.337	833.258
656.465	834.474
656.593	828.454
656.721	823.175
656.849	834.608
656.977	831.546
657.105	830.196
657.233	814.474
657.362	816.113
657.490	818.918
657.618	821.423
657.746	815.082
657.874	814.155
658.002	814.392
658.130	807.216
658.258	812.557
658.387	803.918
658.515	805.113
658.643	806.536
658.771	808.371
658.899	796.649
659.027	797.031
659.155	800.866
659.283	788.031
659.412	789.742
659.540	791.443
659.668	797.402
659.796	789.866
659.924	794.876
660.052	792.443
660.180	783.536
660.308	785.072
660.437	782.794
660.565	785.000
660.693	785.392
660.821	780.196
660.949	774.474
661.077	783.464
661.205	778.320
661.333	766.515
661.462	793.186
661.590	778.897
661.718	770.351
661.846	771.588
661.974	768.052
662.102	766.897
662.230	768.402
662.358	767.918
662.487	760.258
662.615	762.412
662.743	763.103
662.871	766.567
662.999	759.948
663.127	761.928
663.255	749.289
663.383	759.670
663.512	755.742
663.640	751.165
663.768	762.959
663.896	760.711
664.024	752.711
664.152	751.876
664.280	755.474
664.408	752.381
664.537	753.577
664.665	759.062
664.793	742.216
664.921	742.938
665.049	741.299
665.177	747.959
665.305	748.371
665.433	742.557
665.562	743.918
665.690	737.649
665.818	744.866
665.946	737.165
666.074	737.299
666.202	734.804
666.330	738.000
666.458	733.423
666.587	734.186
666.715	732.825
666.843	733.907
666.971	727.814
667.099	732.454
667.227	730.041
667.355	727.485
667.483	724.237
667.612	722.928
667.740	723.918
667.868	725.577
667.996	722.402
668.124	719.918
668.252	724.464
668.380	717.340
668.508	722.948
668.637	705.577
668.765	713.784
668.893	707.412
669.021	705.567
669.149	702.423
669.277	708.619
669.405	707.969
669.533	703.299
669.662	706.918
669.790	702.474
669.918	701.804
670.046	701.144
670.174	699.866
670.302	697.495
670.430	688.309
670.558	692.165
670.687	696.526
670.815	687.701
670.943	694.711
671.071	693.464
671.199	681.216
671.327	685.361
671.455	683.701
671.583	681.794
671.712	678.134
671.840	677.103
671.968	676.598
672.096	673.433
672.224	668.196
672.352	672.196
672.480	671.753
672.608	669.948
672.737	665.196
672.865	665.660
672.993	661.247
673.121	654.701
673.249	663.433
673.377	658.371
673.505	653.608
673.633	649.041
673.762	655.804
673.890	653.299
674.018	645.144
674.146	644.464
674.274	643.423
674.402	639.670
674.530	643.134
674.658	645.711
674.787	634.938
674.915	644.289
675.043	636.732
675.171	631.495
675.299	624.701
675.427	628.866
675.555	626.876
675.683	624.495
675.812	619.536
675.940	621.113
676.068	627.866
676.196	616.773
676.324	615.320
676.452	618.268
676.580	610.629
676.708	614.876
676.837	617.392
676.965	606.536
677.093	605.206
677.221	604.763
677.349	599.093
677.477	605.557
677.605	601.691
677.733	608.268
677.862	591.742
677.990	596.000
678.118	595.598
678.246	591.742
678.374	594.361
678.502	590.134
678.630	587.577
678.758	588.041
678.887	586.186
679.015	594.577
679.143	583.660
679.271	585.474
679.399	581.660
679.527	576.072
679.655	575.237
679.783	577.856
679.912	572.103
680.040	578.155
680.168	570.918
680.296	562.062
680.424	570.278
680.552	571.588
680.680	564.021
680.808	563.876
680.937	564.804
681.065	558.866
681.193	558.588
681.321	558.299
681.449	563.041
681.577	555.062
681.705	552.010
681.833	546.753
681.962	556.258
682.090	550.928
682.218	547.680
682.346	542.639
682.474	549.412
682.602	553.206
682.730	545.258
682.858	540.722
682.987	551.155
683.115	547.392
683.243	545.918
683.371	547.299
683.499	538.392
683.627	539.082
683.755	537.371
683.883	538.412
684.012	535.412
684.140	537.361
684.268	533.268
684.396	537.938
684.524	536.134
684.652	533.804
684.780	544.660
684.908	526.495
685.037	530.062
685.165	525.186
685.293	530.505
685.421	523.753
685.549	519.938
685.677	525.897
685.805	527.495
685.933	527.412
686.062	524.866
686.190	521.093
686.318	528.598
686.446	524.825
686.574	521.732
686.702	520.814
686.830	518.588
686.958	522.773
687.087	520.206
687.215	514.969
687.343	512.897
687.471	523.381
687.599	519.732
687.727	512.082
687.855	513.144
687.983	514.577
688.112	518.320
688.240	511.103
688.368	511.608
688.496	509.186
688.624	510.041
688.752	509.794
688.880	506.175
689.008	507.381
689.137	504.103
689.265	503.938
689.393	502.680
689.521	506.577
689.649	502.959
689.777	501.557
689.905	494.227
690.033	502.175
690.162	489.598
690.290	495.835
690.418	491.000
690.546	494.320
690.674	488.000
690.802	488.299
690.930	484.866
691.058	484.722
691.187	480.258
691.315	484.608
691.443	484.619
691.571	482.309
691.699	478.320
691.827	478.763
691.955	473.948
692.083	480.247
692.212	473.608
692.340	475.289
692.468	468.814
692.596	471.010
692.724	469.732
692.852	467.052
692.980	459.979
693.108	457.113
693.237	464.196
693.365	463.732
693.493	466.031
693.621	455.629
693.749	457.763
693.877	453.526
694.005	455.835
694.133	454.103
694.262	455.619
694.390	453.948
694.518	443.371
694.646	443.608
694.774	447.340
694.902	448.608
695.030	446.412
695.158	445.784
695.287	442.680
695.415	445.722
695.543	436.433
695.671	441.454
695.799	438.103
695.927	433.309
696.055	433.773
696.183	439.907
696.312	436.495
696.440	430.814
696.568	433.969
696.696	432.072
696.824	426.485
696.952	430.351
697.080	423.887
697.208	427.773
697.337	423.588
697.465	424.454
697.593	421.588
697.721	421.804
697.849	422.052
697.977	421.320
698.105	415.495
698.233	418.124
698.362	416.134
698.490	420.351
698.618	414.711
698.746	412.794
698.874	413.763
699.002	409.773
699.130	413.206
699.258	411.505
699.387	409.361
699.515	403.835
699.643	407.206
699.771	405.062
699.899	408.041
700.027	399.175
700.155	402.845
700.283	407.649
700.412	395.320
700.540	403.608
700.668	395.155
700.796	396.680
700.924	394.113
701.052	396.876
701.180	391.247
701.308	386.247
701.437	387.969
701.565	389.082
701.693	388.959
701.821	387.433
701.949	386.660
702.077	384.536
702.205	386.186
702.333	380.732
702.462	381.804
702.590	381.423
702.718	377.753
702.846	372.722
702.974	374.969
703.102	373.732
703.230	376.577
703.358	371.546
703.487	365.825
703.615	366.134
703.743	370.278
703.871	367.309
703.999	363.309
704.127	365.680
704.255	359.505
704.383	357.124
704.512	360.052
704.640	357.124
704.768	357.423
704.896	359.392
705.024	352.794
705.152	356.196
705.280	353.206
705.408	354.289
705.537	352.856
705.665	351.216
705.793	349.814
705.921	346.485
706.049	349.845
706.177	344.371
706.305	348.474
706.433	345.052
706.562	339.979
706.690	344.814
706.818	342.299
706.946	340.639
707.074	340.515
707.202	337.918
707.330	338.124
707.458	336.742
707.587	334.031
707.715	330.959
707.843	335.289
707.971	337.113
708.099	329.371
708.227	328.876
708.355	325.577
708.483	329.711
708.612	327.897
708.740	335.351
708.868	327.990
708.996	326.402
709.124	328.918
709.252	323.969
709.380	325.247
709.508	325.443
709.637	321.948
709.765	319.134
709.893	315.351
710.021	319.649
710.149	319.660
710.277	319.948
710.405	315.649
710.533	314.619
710.662	316.175
710.790	318.608
710.918	315.969
711.046	315.557
711.174	315.165
711.302	309.670
711.430	315.629
711.558	311.062
711.687	312.052
711.815	314.959
711.943	311.505
712.071	311.278
712.199	308.093
712.327	307.144
712.455	302.959
712.583	306.784
712.712	306.495
712.840	302.155
712.968	304.082
713.096	305.876
713.224	300.814
713.352	302.567
713.480	300.505
713.608	303.309
713.737	297.845
713.865	300.289
713.993	299.979
714.121	297.216
714.249	300.361
714.377	299.660
714.505	298.474
714.633	293.072
714.762	295.897
714.890	295.000
715.018	298.454
715.146	292.526
715.274	296.680
715.402	290.443
715.530	290.093
715.658	293.804
715.787	293.660
715.915	289.351
716.043	289.247
716.171	283.351
716.299	290.588
716.427	289.567
716.555	290.897
716.683	285.186
716.812	286.701
716.940	287.072
717.068	287.825
717.196	286.361
717.324	281.742
717.452	282.990
717.580	279.433
717.708	282.649
717.837	276.206
717.965	280.485
718.093	279.175
718.221	274.227
718.349	279.753
718.477	282.732
718.605	268.619
718.733	278.082
718.862	273.907
718.990	275.505
719.118	273.351
719.246	271.691
719.374	273.041
719.502	273.330
719.630	271.134
719.758	274.577
719.887	271.392
720.015	268.309
720.143	264.969
720.271	267.567
720.399	266.278
720.527	269.103
720.655	266.876
720.783	263.247
720.912	263.216
721.040	267.990
721.168	262.144
721.296	258.062
721.424	260.412
721.552	254.227
721.680	254.598
721.808	262.402
721.937	256.804
722.065	257.918
722.193	252.969
722.321	254.402
722.449	254.247
722.577	254.258
722.705	250.320
722.833	248.010
722.962	252.691
723.090	250.845
723.218	249.505
723.346	247.598
723.474	250.113
723.602	239.577
723.730	243.753
723.858	242.938
723.987	245.897
724.115	240.433
724.243	240.845
724.371	241.711
724.499	245.113
724.627	238.495
724.755	245.216
724.883	238.680
725.012	239.948
725.140	238.629
725.268	245.711
725.396	235.062
725.524	237.948
725.652	238.588
725.780	232.402
725.908	230.608
726.037	235.454
726.165	237.608
726.293	235.268
726.421	232.113
726.549	230.722
726.677	227.144
726.805	231.237
726.933	232.835
727.062	227.402
727.190	230.866
727.318	229.577
727.446	228.804
727.574	234.433
727.702	229.784
727.830	226.113
727.958	226.515
728.087	226.247
728.215	221.206
728.343	223.175
728.471	227.598
728.599	220.206
728.727	222.784
728.855	224.897
728.983	223.165
729.112	221.546
729.240	222.227
729.368	218.093
729.496	218.588
729.624	218.196
729.752	222.175
729.880	218.052
730.008	217.763
730.137	216.526
730.265	219.412
730.393	214.557
730.521	213.258
730.649	212.299
730.777	214.660
730.905	211.402
731.033	212.691
731.162	217.381
731.290	211.876
731.418	208.299
731.546	210.186
731.674	209.753
731.802	207.990
731.930	209.196
732.058	206.629
732.187	209.103
732.315	213.742
732.443	210.021
732.571	206.155
732.699	211.237
732.827	208.165
732.955	205.897
733.083	208.959
733.212	204.629
733.340	206.309
733.468	206.835
733.596	207.608
733.724	203.907
733.852	206.629
733.980	201.320
734.108	203.691
734.237	201.619
734.365	198.897
734.493	204.753
734.621	207.041
734.749	203.227
734.877	203.433
735.005	202.588
735.133	202.000
735.262	203.155
735.390	201.093
735.518	198.856
735.646	198.505
735.774	196.691
735.902	202.464
736.030	198.330
736.158	199.031
736.287	198.155
736.415	201.928
736.543	198.701
736.671	195.598
736.799	200.062
736.927	195.402
737.055	198.928
737.183	197.732
737.312	197.639
737.440	194.588
737.568	198.948
737.696	194.371
737.824	195.464
737.952	195.794
738.080	195.320
738.208	194.794
738.337	193.072
738.465	191.629
738.593	192.979
738.721	192.175
738.849	194.258
738.977	194.577
739.105	193.433
739.233	190.495
739.362	188.825
739.490	190.505
739.618	190.649
739.746	189.691
739.874	190.165
740.002	191.629
740.130	186.443
740.258	188.515
740.387	192.485
740.515	189.082
740.643	191.649
740.771	188.680
740.899	187.918
741.027	184.990
741.155	186.660
741.283	185.794
741.412	186.021
741.540	187.113
741.668	184.907
741.796	189.227
741.924	185.588
742.052	186.289
742.180	187.381
742.308	182.784
742.437	185.804
742.565	185.041
742.693	183.247
742.821	184.969
742.949	182.124
743.077	182.629
