whiteu_at_750.00nm_cut_at_1060.50Y_01.dat
19.06.2023
11:24:58
cut middle at Y: 1060.50
top cursor: 1109 down cursor: 1012 mean of: 97 lines , 2560 datapoints
wavelength(nm)	intensity[arb. units]
585.996	1554.093
586.124	1505.423
586.252	1493.577
586.380	1498.959
586.508	1492.753
586.637	1506.093
586.765	1500.021
586.893	1503.845
587.021	1507.701
587.149	1513.629
587.277	1517.010
587.405	1515.299
587.533	1498.804
587.662	1513.021
587.790	1513.928
587.918	1508.093
588.046	1517.443
588.174	1523.722
588.302	1522.021
588.430	1516.670
588.558	1518.175
588.687	1519.845
588.815	1543.804
588.943	1532.175
589.071	1522.196
589.199	1520.649
589.327	1517.691
589.455	1518.392
589.583	1532.299
589.712	1540.010
589.840	1524.289
589.968	1527.495
590.096	1539.371
590.224	1533.660
590.352	1533.082
590.480	1537.711
590.608	1541.515
590.737	1516.938
590.865	1539.021
590.993	1541.546
591.121	1535.979
591.249	1537.165
591.377	1539.474
591.505	1529.361
591.633	1532.691
591.762	1548.845
591.890	1536.206
592.018	1532.546
592.146	1536.423
592.274	1550.649
592.402	1535.711
592.530	1532.464
592.658	1533.990
592.787	1536.155
592.915	1542.186
593.043	1553.289
593.171	1528.711
593.299	1545.340
593.427	1550.402
593.555	1541.206
593.683	1536.959
593.812	1547.629
593.940	1558.144
594.068	1558.371
594.196	1567.165
594.324	1560.186
594.452	1577.557
594.580	1569.763
594.708	1574.639
594.837	1558.856
594.965	1580.165
595.093	1585.371
595.221	1581.928
595.349	1578.660
595.477	1594.577
595.605	1579.124
595.733	1613.629
595.862	1590.784
595.990	1595.082
596.118	1594.835
596.246	1596.505
596.374	1593.124
596.502	1616.082
596.630	1615.165
596.758	1614.866
596.887	1611.299
597.015	1628.835
597.143	1590.959
597.271	1607.278
597.399	1611.031
597.527	1625.732
597.655	1623.918
597.783	1615.433
597.912	1616.175
598.040	1604.732
598.168	1593.598
598.296	1619.845
598.424	1615.763
598.552	1605.763
598.680	1589.948
598.808	1618.969
598.937	1607.454
599.065	1610.691
599.193	1604.866
599.321	1583.928
599.449	1600.969
599.577	1602.876
599.705	1607.959
599.833	1606.485
599.962	1583.216
600.090	1597.186
600.218	1603.567
600.346	1625.763
600.474	1604.711
600.602	1609.505
600.730	1603.320
600.858	1615.216
600.987	1613.052
601.115	1598.062
601.243	1598.856
601.371	1606.835
601.499	1602.351
601.627	1610.598
601.755	1616.216
601.883	1601.320
602.012	1620.670
602.140	1621.505
602.268	1622.742
602.396	1634.619
602.524	1631.320
602.652	1639.856
602.780	1627.041
602.908	1633.660
603.037	1645.103
603.165	1657.732
603.293	1664.443
603.421	1668.320
603.549	1661.649
603.677	1659.402
603.805	1663.309
603.933	1674.680
604.062	1669.784
604.190	1681.959
604.318	1673.041
604.446	1699.969
604.574	1685.433
604.702	1696.608
604.830	1689.309
604.958	1707.175
605.087	1715.887
605.215	1721.433
605.343	1725.196
605.471	1728.567
605.599	1725.835
605.727	1731.351
605.855	1720.247
605.983	1723.010
606.112	1741.010
606.240	1746.165
606.368	1741.804
606.496	1752.361
606.624	1746.464
606.752	1727.845
606.880	1752.784
607.008	1742.464
607.137	1760.402
607.265	1747.021
607.393	1765.505
607.521	1740.474
607.649	1743.680
607.777	1744.072
607.905	1769.588
608.033	1751.918
608.162	1736.289
608.290	1750.536
608.418	1762.103
608.546	1746.113
608.674	1747.546
608.802	1746.433
608.930	1760.711
609.058	1736.072
609.187	1744.052
609.315	1739.526
609.443	1737.072
609.571	1736.907
609.699	1731.433
609.827	1737.608
609.955	1734.052
610.083	1724.619
610.212	1742.113
610.340	1732.371
610.468	1734.660
610.596	1750.918
610.724	1728.124
610.852	1729.320
610.980	1727.773
611.108	1735.866
611.237	1734.320
611.365	1729.866
611.493	1726.351
611.621	1727.515
611.749	1748.505
611.877	1752.876
612.005	1740.938
612.133	1733.268
612.262	1732.876
612.390	1741.041
612.518	1753.557
612.646	1752.701
612.774	1749.948
612.902	1760.515
613.030	1770.866
613.158	1761.701
613.287	1768.639
613.415	1775.320
613.543	1778.052
613.671	1781.948
613.799	1784.371
613.927	1783.392
614.055	1791.887
614.183	1786.000
614.312	1786.660
614.440	1781.093
614.568	1794.082
614.696	1801.196
614.824	1797.742
614.952	1804.660
615.080	1806.289
615.208	1811.948
615.337	1814.979
615.465	1813.742
615.593	1814.402
615.721	1818.392
615.849	1820.907
615.977	1817.340
616.105	1812.825
616.233	1812.814
616.362	1829.196
616.490	1826.722
616.618	1844.227
616.746	1811.526
616.874	1828.711
617.002	1839.722
617.130	1850.732
617.258	1842.918
617.387	1819.804
617.515	1828.979
617.643	1832.216
617.771	1835.124
617.899	1830.557
618.027	1837.660
618.155	1843.701
618.283	1822.062
618.412	1824.670
618.540	1843.206
618.668	1843.175
618.796	1825.103
618.924	1840.423
619.052	1849.237
619.180	1842.753
619.308	1839.165
619.437	1845.402
619.565	1843.588
619.693	1838.113
619.821	1847.701
619.949	1847.031
620.077	1838.010
620.205	1853.567
620.333	1847.206
620.462	1838.577
620.590	1848.041
620.718	1848.392
620.846	1840.134
620.974	1855.423
621.102	1841.959
621.230	1834.052
621.358	1855.330
621.487	1847.546
621.615	1845.175
621.743	1855.887
621.871	1843.402
621.999	1829.722
622.127	1838.186
622.255	1837.268
622.383	1845.052
622.512	1840.825
622.640	1842.732
622.768	1830.402
622.896	1832.082
623.024	1833.082
623.152	1829.443
623.280	1824.010
623.408	1832.670
623.537	1837.784
623.665	1835.031
623.793	1840.979
623.921	1824.103
624.049	1821.866
624.177	1827.505
624.305	1826.206
624.433	1844.186
624.562	1833.577
624.690	1838.907
624.818	1820.443
624.946	1828.701
625.074	1817.979
625.202	1807.371
625.330	1818.948
625.458	1820.093
625.587	1826.959
625.715	1802.825
625.843	1816.546
625.971	1815.619
626.099	1823.814
626.227	1828.361
626.355	1806.804
626.483	1829.887
626.612	1818.907
626.740	1819.258
626.868	1830.876
626.996	1821.979
627.124	1813.227
627.252	1808.825
627.380	1816.268
627.508	1808.072
627.637	1805.237
627.765	1811.289
627.893	1823.320
628.021	1812.041
628.149	1814.031
628.277	1822.505
628.405	1825.918
628.533	1810.289
628.662	1801.918
628.790	1819.505
628.918	1820.680
629.046	1819.897
629.174	1810.959
629.302	1819.722
629.430	1835.990
629.558	1824.835
629.687	1831.742
629.815	1823.866
629.943	1828.474
630.071	1819.979
630.199	1829.485
630.327	1821.247
630.455	1823.103
630.583	1834.732
630.712	1840.289
630.840	1822.423
630.968	1838.990
631.096	1849.794
631.224	1827.361
631.352	1820.856
631.480	1821.392
631.608	1829.000
631.737	1819.454
631.865	1854.567
631.993	1836.629
632.121	1828.897
632.249	1835.784
632.377	1831.093
632.505	1806.278
632.633	1809.691
632.762	1823.784
632.890	1831.856
633.018	1827.227
633.146	1818.629
633.274	1823.619
633.402	1813.392
633.530	1818.237
633.658	1817.505
633.787	1814.691
633.915	1818.443
634.043	1808.289
634.171	1805.175
634.299	1810.010
634.427	1797.959
634.555	1812.907
634.683	1796.144
634.812	1795.320
634.940	1797.649
635.068	1788.608
635.196	1799.928
635.324	1807.474
635.452	1792.742
635.580	1798.216
635.708	1788.454
635.837	1770.072
635.965	1775.165
636.093	1765.536
636.221	1774.309
636.349	1760.485
636.477	1751.103
636.605	1758.113
636.733	1751.052
636.862	1735.907
636.990	1741.093
637.118	1743.546
637.246	1731.124
637.374	1739.454
637.502	1731.216
637.630	1742.825
637.758	1724.546
637.887	1729.536
638.015	1723.237
638.143	1733.907
638.271	1703.268
638.399	1699.515
638.527	1693.299
638.655	1704.691
638.783	1718.464
638.912	1714.113
639.040	1699.371
639.168	1710.753
639.296	1695.536
639.424	1708.629
639.552	1698.196
639.680	1694.856
639.808	1684.639
639.937	1682.392
640.065	1692.639
640.193	1696.907
640.321	1683.701
640.449	1681.835
640.577	1676.649
640.705	1659.464
640.833	1680.330
640.962	1675.371
641.090	1667.093
641.218	1674.093
641.346	1676.443
641.474	1670.753
641.602	1655.845
641.730	1676.928
641.858	1663.845
641.987	1668.371
642.115	1684.021
642.243	1667.773
642.371	1671.773
642.499	1654.629
642.627	1661.052
642.755	1660.876
642.883	1663.052
643.012	1645.340
643.140	1659.680
643.268	1652.804
643.396	1658.021
643.524	1658.897
643.652	1647.753
643.780	1657.794
643.908	1651.216
644.037	1648.062
644.165	1636.577
644.293	1655.433
644.421	1642.485
644.549	1653.062
644.677	1659.062
644.805	1648.134
644.933	1645.670
645.062	1637.021
645.190	1633.175
645.318	1635.557
645.446	1655.021
645.574	1639.268
645.702	1635.237
645.830	1655.876
645.958	1650.381
646.087	1652.856
646.215	1646.381
646.343	1648.443
646.471	1634.103
646.599	1636.629
646.727	1634.918
646.855	1625.278
646.983	1638.381
647.112	1638.041
647.240	1627.814
647.368	1609.649
647.496	1619.711
647.624	1615.567
647.752	1622.113
647.880	1620.175
648.008	1611.031
648.137	1603.495
648.265	1595.680
648.393	1598.196
648.521	1588.701
648.649	1594.959
648.777	1590.216
648.905	1583.392
649.033	1570.371
649.162	1576.784
649.290	1575.577
649.418	1573.361
649.546	1572.588
649.674	1576.309
649.802	1576.495
649.930	1564.845
650.058	1555.907
650.187	1557.021
650.315	1568.186
650.443	1545.598
650.571	1541.247
650.699	1542.402
650.827	1546.412
650.955	1546.773
651.083	1535.619
651.212	1542.289
651.340	1530.113
651.468	1530.351
651.596	1519.649
651.724	1524.969
651.852	1522.495
651.980	1510.268
652.108	1526.227
652.237	1511.258
652.365	1498.052
652.493	1509.041
652.621	1499.423
652.749	1508.124
652.877	1502.196
653.005	1502.959
653.133	1516.330
653.262	1500.639
653.390	1494.433
653.518	1489.887
653.646	1486.948
653.774	1493.773
653.902	1495.753
654.030	1479.722
654.158	1474.629
654.287	1479.928
654.415	1468.577
654.543	1467.392
654.671	1469.320
654.799	1459.196
654.927	1460.464
655.055	1451.330
655.183	1441.670
655.312	1442.021
655.440	1451.165
655.568	1440.577
655.696	1423.186
655.824	1442.082
655.952	1436.165
656.080	1431.753
656.208	1436.412
656.337	1432.000
656.465	1438.186
656.593	1427.938
656.721	1432.289
656.849	1422.433
656.977	1410.412
657.105	1400.175
657.233	1411.216
657.362	1409.402
657.490	1399.041
657.618	1399.856
657.746	1402.969
657.874	1387.423
658.002	1398.454
658.130	1390.495
658.258	1388.351
658.387	1383.237
658.515	1368.010
658.643	1374.804
658.771	1370.701
658.899	1366.062
659.027	1363.454
659.155	1365.794
659.283	1354.990
659.412	1352.649
659.540	1352.052
659.668	1351.247
659.796	1338.227
659.924	1356.680
660.052	1339.680
660.180	1325.907
660.308	1336.268
660.437	1325.835
660.565	1334.258
660.693	1323.918
660.821	1321.825
660.949	1336.474
661.077	1321.794
661.205	1314.031
661.333	1310.330
661.462	1321.825
661.590	1325.392
661.718	1311.072
661.846	1312.969
661.974	1305.309
662.102	1296.928
662.230	1304.216
662.358	1299.454
662.487	1293.155
662.615	1298.113
662.743	1298.670
662.871	1287.010
662.999	1292.340
663.127	1286.649
663.255	1273.206
663.383	1285.722
663.512	1277.361
663.640	1294.784
663.768	1270.660
663.896	1279.299
664.024	1286.041
664.152	1267.753
664.280	1271.144
664.408	1262.784
664.537	1265.918
664.665	1261.794
664.793	1248.804
664.921	1245.000
665.049	1256.722
665.177	1259.309
665.305	1251.918
665.433	1250.196
665.562	1254.227
665.690	1254.722
665.818	1247.608
665.946	1249.546
666.074	1239.938
666.202	1242.309
666.330	1232.557
666.458	1238.381
666.587	1230.216
666.715	1237.289
666.843	1229.423
666.971	1227.959
667.099	1232.732
667.227	1229.268
667.355	1219.392
667.483	1216.608
667.612	1210.082
667.740	1216.660
667.868	1215.216
667.996	1214.443
668.124	1206.577
668.252	1213.278
668.380	1204.402
668.508	1220.742
668.637	1200.814
668.765	1201.814
668.893	1212.711
669.021	1191.278
669.149	1197.835
669.277	1194.598
669.405	1185.196
669.533	1184.784
669.662	1183.052
669.790	1178.825
669.918	1173.515
670.046	1179.021
670.174	1178.340
670.302	1172.464
670.430	1159.412
670.558	1167.041
670.687	1165.557
670.815	1152.825
670.943	1154.278
671.071	1153.082
671.199	1154.907
671.327	1153.598
671.455	1148.072
671.583	1148.113
671.712	1132.876
671.840	1143.577
671.968	1127.753
672.096	1123.165
672.224	1129.227
672.352	1121.876
672.480	1119.062
672.608	1114.897
672.737	1097.876
672.865	1102.546
672.993	1093.680
673.121	1107.629
673.249	1095.010
673.377	1091.835
673.505	1088.309
673.633	1084.649
673.762	1074.804
673.890	1085.505
674.018	1080.959
674.146	1072.031
674.274	1076.371
674.402	1071.196
674.530	1068.536
674.658	1070.010
674.787	1063.227
674.915	1062.969
675.043	1057.485
675.171	1045.072
675.299	1045.155
675.427	1037.309
675.555	1040.814
675.683	1036.144
675.812	1028.629
675.940	1024.443
676.068	1022.031
676.196	1022.680
676.324	1012.206
676.452	1014.351
676.580	1020.227
676.708	1013.660
676.837	1011.062
676.965	1004.588
677.093	998.979
677.221	996.691
677.349	993.804
677.477	992.907
677.605	992.794
677.733	991.598
677.862	983.608
677.990	978.876
678.118	975.041
678.246	970.866
678.374	967.340
678.502	966.887
678.630	963.186
678.758	959.041
678.887	958.773
679.015	967.340
679.143	953.804
679.271	946.845
679.399	955.175
679.527	939.124
679.655	938.660
679.783	938.825
679.912	931.784
680.040	937.196
680.168	931.856
680.296	923.732
680.424	925.763
680.552	916.979
680.680	922.134
680.808	918.804
680.937	915.794
681.065	919.216
681.193	906.320
681.321	916.649
681.449	902.454
681.577	901.629
681.705	899.134
681.833	897.062
681.962	892.567
682.090	893.443
682.218	891.144
682.346	897.918
682.474	895.557
682.602	889.443
682.730	889.010
682.858	887.216
682.987	881.464
683.115	878.546
683.243	875.959
683.371	867.742
683.499	867.062
683.627	877.938
683.755	867.907
683.883	872.464
684.012	861.052
684.140	858.072
684.268	854.557
684.396	854.608
684.524	852.670
684.652	863.495
684.780	866.567
684.908	856.649
685.037	854.082
685.165	840.825
685.293	851.505
685.421	848.691
685.549	849.866
685.677	848.186
685.805	838.031
685.933	846.680
686.062	835.629
686.190	841.732
686.318	841.433
686.446	840.990
686.574	826.093
686.702	837.402
686.830	837.443
686.958	835.608
687.087	838.186
687.215	828.763
687.343	835.464
687.471	833.567
687.599	819.979
687.727	821.546
687.855	822.619
687.983	819.402
688.112	819.361
688.240	813.278
688.368	814.392
688.496	812.340
688.624	802.536
688.752	807.845
688.880	809.268
689.008	797.959
689.137	808.433
689.265	803.443
689.393	799.052
689.521	799.175
689.649	792.227
689.777	799.371
689.905	788.680
690.033	792.660
690.162	781.794
690.290	782.278
690.418	781.227
690.546	786.495
690.674	787.959
690.802	767.103
690.930	771.299
691.058	763.814
691.187	767.763
691.315	772.196
691.443	767.423
691.571	759.247
691.699	757.371
691.827	759.546
691.955	748.454
692.083	760.196
692.212	744.134
692.340	751.753
692.468	732.732
692.596	736.804
692.724	737.866
692.852	737.268
692.980	742.639
693.108	734.454
693.237	727.794
693.365	728.485
693.493	722.835
693.621	723.670
693.749	721.216
693.877	718.804
694.005	717.330
694.133	718.155
694.262	712.010
694.390	709.784
694.518	704.629
694.646	701.340
694.774	706.639
694.902	692.227
695.030	707.990
695.158	700.495
695.287	694.732
695.415	691.320
695.543	693.536
695.671	687.794
695.799	683.134
695.927	683.536
696.055	680.165
696.183	694.773
696.312	677.948
696.440	680.309
696.568	680.577
696.696	677.175
696.824	672.381
696.952	672.907
697.080	664.021
697.208	672.021
697.337	660.412
697.465	664.639
697.593	660.175
697.721	656.082
697.849	660.454
697.977	655.402
698.105	655.742
698.233	657.773
698.362	647.206
698.490	653.948
698.618	649.722
698.746	637.041
698.874	638.670
699.002	644.598
699.130	642.536
699.258	637.938
699.387	632.113
699.515	626.278
699.643	634.134
699.771	628.773
699.899	626.258
700.027	630.268
700.155	624.577
700.283	622.495
700.412	620.577
700.540	617.814
700.668	614.268
700.796	610.062
700.924	607.289
701.052	613.381
701.180	605.969
701.308	594.216
701.437	600.402
701.565	604.072
701.693	598.258
701.821	594.505
701.949	596.206
702.077	589.866
702.205	587.062
702.333	588.309
702.462	583.866
702.590	582.990
702.718	587.196
702.846	579.649
702.974	571.041
703.102	569.103
703.230	577.835
703.358	568.763
703.487	565.804
703.615	557.454
703.743	552.196
703.871	554.237
703.999	550.835
704.127	555.082
704.255	550.979
704.383	546.113
704.512	543.093
704.640	542.557
704.768	540.928
704.896	539.680
705.024	538.979
705.152	546.103
705.280	530.639
705.408	531.381
705.537	534.876
705.665	536.433
705.793	526.309
705.921	525.928
706.049	523.598
706.177	523.629
706.305	520.598
706.433	515.412
706.562	509.175
706.690	513.093
706.818	509.330
706.946	508.041
707.074	501.093
707.202	498.856
707.330	501.763
707.458	498.649
707.587	498.557
707.715	495.536
707.843	492.247
707.971	492.670
708.099	487.144
708.227	481.526
708.355	488.052
708.483	483.866
708.612	483.196
708.740	482.979
708.868	479.402
708.996	482.155
709.124	480.320
709.252	476.763
709.380	473.113
709.508	467.979
709.637	466.175
709.765	468.206
709.893	462.010
710.021	469.289
710.149	460.526
710.277	465.701
710.405	462.907
710.533	465.670
710.662	455.918
710.790	454.742
710.918	454.196
711.046	461.639
711.174	456.608
711.302	452.546
711.430	455.629
711.558	458.216
711.687	445.000
711.815	447.031
711.943	446.402
712.071	442.351
712.199	445.320
712.327	437.608
712.455	440.227
712.583	444.990
712.712	439.546
712.840	436.515
712.968	433.670
713.096	436.567
713.224	435.268
713.352	430.526
713.480	438.330
713.608	431.526
713.737	429.299
713.865	427.526
713.993	426.711
714.121	423.062
714.249	425.072
714.377	422.557
714.505	425.546
714.633	417.845
714.762	415.536
714.890	421.165
715.018	422.082
715.146	416.619
715.274	415.887
715.402	409.474
715.530	410.052
715.658	408.660
715.787	411.897
715.915	409.835
716.043	411.598
716.171	413.000
716.299	408.722
716.427	402.660
716.555	401.227
716.683	403.340
716.812	399.433
716.940	403.959
717.068	402.021
717.196	396.928
717.324	397.443
717.452	392.784
717.580	391.660
717.708	396.711
717.837	389.515
717.965	389.732
718.093	387.588
718.221	385.784
718.349	386.113
718.477	390.515
718.605	385.959
718.733	384.887
718.862	382.948
718.990	382.021
719.118	378.577
719.246	381.763
719.374	377.371
719.502	379.216
719.630	376.299
719.758	374.062
719.887	371.485
720.015	373.979
720.143	372.959
720.271	373.619
720.399	368.000
720.527	365.237
720.655	370.515
720.783	366.794
720.912	362.959
721.040	360.948
721.168	365.680
721.296	358.216
721.424	359.825
721.552	358.598
721.680	357.979
721.808	356.639
721.937	352.340
722.065	351.969
722.193	355.062
722.321	350.835
722.449	347.856
722.577	345.165
722.705	344.938
722.833	348.948
722.962	344.546
723.090	344.278
723.218	342.103
723.346	339.237
723.474	343.969
723.602	338.082
723.730	338.691
723.858	336.959
723.987	337.351
724.115	330.247
724.243	330.845
724.371	332.474
724.499	328.443
724.627	330.588
724.755	328.948
724.883	330.124
725.012	325.794
725.140	324.041
725.268	326.691
725.396	321.268
725.524	322.031
725.652	320.928
725.780	319.959
725.908	321.711
726.037	319.237
726.165	315.928
726.293	311.546
726.421	313.093
726.549	315.918
726.677	313.464
726.805	312.361
726.933	308.763
727.062	310.165
727.190	303.402
727.318	306.866
727.446	311.732
727.574	307.505
727.702	306.309
727.830	308.567
727.958	305.320
728.087	306.299
728.215	296.052
728.343	300.093
728.471	295.526
728.599	299.753
728.727	296.299
728.855	297.278
728.983	295.845
729.112	293.722
729.240	293.928
729.368	291.361
729.496	294.660
729.624	295.062
729.752	296.660
729.880	291.938
730.008	289.144
730.137	287.144
730.265	285.814
730.393	287.588
730.521	284.258
730.649	284.876
730.777	279.433
730.905	282.660
731.033	281.144
731.162	282.361
731.290	284.784
731.418	279.186
731.546	275.814
731.674	275.856
731.802	276.464
731.930	281.021
732.058	274.289
732.187	278.485
732.315	276.433
732.443	275.608
732.571	273.773
732.699	273.732
732.827	273.371
732.955	274.165
733.083	267.247
733.212	269.072
733.340	269.412
733.468	266.990
733.596	266.485
733.724	268.742
733.852	261.691
733.980	261.351
734.108	262.320
734.237	259.134
734.365	255.959
734.493	262.062
734.621	261.526
734.749	261.577
734.877	257.155
735.005	257.371
735.133	257.660
735.262	259.639
735.390	252.649
735.518	252.072
735.646	251.392
735.774	255.144
735.902	250.433
736.030	251.825
736.158	254.691
736.287	253.010
736.415	256.216
736.543	253.412
736.671	248.423
736.799	248.887
736.927	246.474
737.055	247.515
737.183	244.526
737.312	247.320
737.440	242.701
737.568	253.856
737.696	244.680
737.824	245.299
737.952	243.588
738.080	247.784
738.208	244.897
738.337	241.278
738.465	243.082
738.593	243.433
738.721	239.474
