dark_at_750.00nm_cut_at_1060.50Y_01.dat
19.06.2023
11:25:49
cut middle at Y: 1060.50
top cursor: 1109 down cursor: 1012 mean of: 97 lines , 2560 datapoints
wavelength(nm)	intensity[arb. units]
585.996	103.567
586.124	103.052
586.252	102.897
586.380	103.216
586.508	103.866
586.637	104.340
586.765	103.804
586.893	103.887
587.021	103.505
587.149	103.381
587.277	103.701
587.405	103.784
587.533	103.526
587.662	102.856
587.790	102.753
587.918	102.485
588.046	102.546
588.174	103.309
588.302	103.959
588.430	103.814
588.558	103.639
588.687	103.588
588.815	104.010
588.943	104.351
589.071	104.320
589.199	103.495
589.327	103.093
589.455	102.969
589.583	104.041
589.712	103.134
589.840	104.052
589.968	103.247
590.096	104.082
590.224	103.052
590.352	104.113
590.480	102.649
590.608	102.443
590.737	104.031
590.865	103.629
590.993	104.113
591.121	102.639
591.249	102.670
591.377	102.299
591.505	103.794
591.633	103.402
591.762	103.113
591.890	103.175
592.018	104.052
592.146	102.845
592.274	103.196
592.402	104.289
592.530	104.216
592.658	103.979
592.787	104.021
592.915	103.227
593.043	102.289
593.171	103.268
593.299	102.876
593.427	103.814
593.555	102.763
593.683	103.464
593.812	103.021
593.940	101.938
594.068	102.814
594.196	102.103
594.324	103.701
594.452	102.309
594.580	104.134
594.708	104.546
594.837	103.340
594.965	103.639
595.093	104.144
595.221	104.320
595.349	104.165
595.477	103.763
595.605	103.227
595.733	102.876
595.862	104.175
595.990	103.082
596.118	104.113
596.246	102.804
596.374	105.021
596.502	103.464
596.630	102.804
596.758	102.412
596.887	102.876
597.015	102.577
597.143	103.773
597.271	102.041
597.399	101.711
597.527	102.237
597.655	101.392
597.783	102.866
597.912	102.557
598.040	103.289
598.168	103.206
598.296	102.928
598.424	103.216
598.552	102.598
598.680	101.742
598.808	101.959
598.937	102.134
599.065	104.443
599.193	103.784
599.321	102.237
599.449	101.299
599.577	103.515
599.705	104.526
599.833	102.619
599.962	102.485
600.090	102.278
600.218	101.608
600.346	102.443
600.474	102.351
600.602	102.753
600.730	102.619
600.858	103.732
600.987	103.876
601.115	103.753
601.243	103.660
601.371	102.237
601.499	103.113
601.627	101.990
601.755	102.753
601.883	102.485
602.012	102.588
602.140	101.320
602.268	102.608
602.396	101.876
602.524	103.175
602.652	103.392
602.780	102.804
602.908	101.598
603.037	101.928
603.165	101.474
603.293	103.072
603.421	102.856
603.549	101.619
603.677	102.237
603.805	102.052
603.933	101.969
604.062	102.814
604.190	103.134
604.318	103.351
604.446	103.381
604.574	103.299
604.702	101.990
604.830	103.567
604.958	102.320
605.087	102.052
605.215	102.216
605.343	103.206
605.471	102.825
605.599	102.557
605.727	102.979
605.855	103.144
605.983	103.113
606.112	102.186
606.240	103.701
606.368	103.526
606.496	103.258
606.624	101.897
606.752	102.928
606.880	102.216
607.008	102.866
607.137	103.485
607.265	101.619
607.393	102.918
607.521	102.701
607.649	102.598
607.777	102.608
607.905	102.082
608.033	103.082
608.162	102.742
608.290	101.392
608.418	102.031
608.546	101.309
608.674	101.619
608.802	103.196
608.930	102.598
609.058	103.031
609.187	102.691
609.315	102.639
609.443	101.701
609.571	102.309
609.699	102.000
609.827	102.412
609.955	102.412
610.083	102.134
610.212	102.680
610.340	102.021
610.468	101.247
610.596	103.010
610.724	103.464
610.852	102.361
610.980	103.021
611.108	101.969
611.237	102.031
611.365	102.433
611.493	103.433
611.621	102.474
611.749	101.557
611.877	102.093
612.005	102.186
612.133	102.443
612.262	101.753
612.390	102.381
612.518	103.052
612.646	103.959
612.774	101.979
612.902	104.268
613.030	102.072
613.158	102.021
613.287	101.598
613.415	102.979
613.543	103.845
613.671	102.608
613.799	101.804
613.927	103.258
614.055	102.784
614.183	101.866
614.312	103.371
614.440	103.639
614.568	101.515
614.696	101.567
614.824	101.340
614.952	101.680
615.080	101.835
615.208	101.814
615.337	101.763
615.465	102.000
615.593	101.113
615.721	101.639
615.849	102.969
615.977	102.227
616.105	102.577
616.233	103.876
616.362	100.794
616.490	102.866
616.618	101.825
616.746	101.691
616.874	101.577
617.002	100.763
617.130	102.134
617.258	101.072
617.387	102.381
617.515	102.763
617.643	101.155
617.771	102.021
617.899	102.526
618.027	101.402
618.155	100.814
618.283	101.608
618.412	101.515
618.540	102.134
618.668	101.969
618.796	103.309
618.924	104.588
619.052	101.763
619.180	102.216
619.308	102.948
619.437	102.588
619.565	101.598
619.693	101.454
619.821	100.711
619.949	100.990
620.077	101.897
620.205	102.876
620.333	101.608
620.462	101.567
620.590	101.515
620.718	100.082
620.846	102.526
620.974	100.268
621.102	101.887
621.230	102.093
621.358	101.474
621.487	100.969
621.615	101.598
621.743	101.278
621.871	102.134
621.999	102.629
622.127	100.124
622.255	101.309
622.383	100.113
622.512	100.412
622.640	101.773
622.768	101.722
622.896	101.722
623.024	100.505
623.152	101.392
623.280	102.113
623.408	102.515
623.537	100.742
623.665	102.588
623.793	101.443
623.921	103.175
624.049	101.258
624.177	102.021
624.305	101.753
624.433	101.278
624.562	101.959
624.690	102.959
624.818	100.897
624.946	101.959
625.074	101.680
625.202	102.835
625.330	101.072
625.458	101.907
625.587	101.979
625.715	101.990
625.843	101.175
625.971	102.134
626.099	102.402
626.227	100.753
626.355	101.753
626.483	101.660
626.612	100.515
626.740	101.340
626.868	101.649
626.996	101.536
627.124	102.216
627.252	101.041
627.380	101.979
627.508	101.505
627.637	102.979
627.765	102.794
627.893	102.897
628.021	101.588
628.149	102.784
628.277	100.701
628.405	101.495
628.533	103.691
628.662	102.041
628.790	101.588
628.918	101.392
629.046	101.608
629.174	99.990
629.302	101.660
629.430	100.237
629.558	102.206
629.687	102.485
629.815	102.443
629.943	102.010
630.071	101.825
630.199	102.010
630.327	102.103
630.455	100.959
630.583	102.000
630.712	101.856
630.840	102.082
630.968	102.216
631.096	101.546
631.224	100.155
631.352	99.619
631.480	101.041
631.608	100.371
631.737	100.794
631.865	100.412
631.993	101.237
632.121	102.124
632.249	101.835
632.377	101.639
632.505	101.701
632.633	102.093
632.762	100.742
632.890	99.804
633.018	101.454
633.146	103.227
633.274	102.608
633.402	102.423
633.530	100.773
633.658	101.722
633.787	100.948
633.915	102.639
634.043	101.010
634.171	101.082
634.299	101.000
634.427	100.371
634.555	101.928
634.683	100.546
634.812	101.412
634.940	100.588
635.068	100.866
635.196	99.299
635.324	101.515
635.452	100.948
635.580	102.031
635.708	101.536
635.837	101.485
635.965	101.072
636.093	101.000
636.221	102.928
636.349	100.443
636.477	101.258
636.605	101.103
636.733	100.320
636.862	99.557
636.990	99.856
637.118	100.794
637.246	100.856
637.374	100.144
637.502	101.186
637.630	101.268
637.758	101.495
637.887	100.619
638.015	100.124
638.143	100.691
638.271	101.536
638.399	101.165
638.527	100.577
638.655	101.505
638.783	100.402
638.912	100.165
639.040	99.557
639.168	100.722
639.296	100.052
639.424	101.175
639.552	100.845
639.680	101.103
639.808	100.175
639.937	99.433
640.065	100.113
640.193	101.876
640.321	100.278
640.449	100.186
640.577	100.928
640.705	101.433
640.833	100.433
640.962	100.649
641.090	100.515
641.218	100.258
641.346	99.485
641.474	101.454
641.602	101.784
641.730	99.330
641.858	101.278
641.987	101.062
642.115	100.361
642.243	101.103
642.371	101.196
642.499	99.711
642.627	100.041
642.755	100.825
642.883	100.784
643.012	102.340
643.140	101.000
643.268	102.464
643.396	100.495
643.524	100.371
643.652	101.155
643.780	100.485
643.908	100.381
644.037	100.330
644.165	100.763
644.293	100.330
644.421	100.144
644.549	99.763
644.677	101.093
644.805	101.588
644.933	99.732
645.062	99.588
645.190	101.474
645.318	100.567
645.446	100.608
645.574	100.711
645.702	101.227
645.830	100.588
645.958	99.691
646.087	101.175
646.215	101.454
646.343	100.010
646.471	99.351
646.599	100.041
646.727	101.175
646.855	100.845
646.983	101.557
647.112	101.443
647.240	101.196
647.368	100.227
647.496	100.742
647.624	100.309
647.752	101.330
647.880	100.443
648.008	100.433
648.137	101.031
648.265	101.753
648.393	99.969
648.521	100.515
648.649	100.196
648.777	99.536
648.905	100.412
649.033	99.660
649.162	100.979
649.290	101.928
649.418	99.990
649.546	100.165
649.674	101.113
649.802	100.093
649.930	100.216
650.058	100.866
650.187	99.722
650.315	100.278
650.443	101.505
650.571	99.907
650.699	100.000
650.827	101.196
650.955	99.856
651.083	100.567
651.212	101.546
651.340	100.835
651.468	99.361
651.596	100.340
651.724	101.227
651.852	100.680
651.980	100.134
652.108	99.794
652.237	100.753
652.365	101.289
652.493	99.577
652.621	100.897
652.749	100.227
652.877	100.113
653.005	101.113
653.133	101.753
653.262	100.763
653.390	100.557
653.518	100.155
653.646	100.814
653.774	99.918
653.902	99.619
654.030	99.474
654.158	100.206
654.287	101.093
654.415	101.010
654.543	100.031
654.671	99.959
654.799	99.969
654.927	99.979
655.055	99.876
655.183	99.474
655.312	100.103
655.440	100.691
655.568	100.629
655.696	100.340
655.824	100.186
655.952	99.546
656.080	100.103
656.208	100.000
656.337	102.546
656.465	100.649
656.593	100.629
656.721	101.289
656.849	101.144
656.977	101.268
657.105	98.825
657.233	99.289
657.362	101.010
657.490	100.784
657.618	101.175
657.746	99.753
657.874	100.000
658.002	100.567
658.130	98.773
658.258	99.784
658.387	101.134
658.515	99.103
658.643	99.691
658.771	99.856
658.899	100.742
659.027	100.454
659.155	99.515
659.283	98.907
659.412	99.938
659.540	100.629
659.668	99.629
659.796	99.845
659.924	100.041
660.052	100.134
660.180	99.670
660.308	100.588
660.437	100.330
660.565	99.619
660.693	100.639
660.821	101.340
660.949	100.031
661.077	100.660
661.205	99.072
661.333	100.670
661.462	102.268
661.590	100.412
661.718	99.196
661.846	99.155
661.974	100.474
662.102	100.825
662.230	99.969
662.358	100.474
662.487	100.670
662.615	100.794
662.743	100.258
662.871	99.825
662.999	99.320
663.127	100.361
663.255	99.299
663.383	100.701
663.512	98.124
663.640	98.866
663.768	99.505
663.896	100.237
664.024	99.577
664.152	99.402
664.280	98.897
664.408	101.196
664.537	101.103
664.665	99.443
664.793	100.742
664.921	101.247
665.049	99.969
665.177	101.031
665.305	100.887
665.433	99.691
665.562	100.124
665.690	100.309
665.818	100.206
665.946	99.381
666.074	98.062
666.202	99.649
666.330	100.392
666.458	100.979
666.587	100.443
666.715	99.144
666.843	100.608
666.971	99.567
667.099	100.660
667.227	99.278
667.355	99.567
667.483	99.649
667.612	99.784
667.740	99.505
667.868	98.928
667.996	100.546
668.124	101.082
668.252	98.608
668.380	100.856
668.508	100.804
668.637	101.082
668.765	100.577
668.893	101.454
669.021	100.124
669.149	99.649
669.277	99.835
669.405	101.052
669.533	99.093
669.662	99.670
669.790	100.000
669.918	99.093
670.046	99.835
670.174	100.753
670.302	100.856
670.430	100.660
670.558	101.680
670.687	100.546
670.815	98.907
670.943	100.711
671.071	100.691
671.199	98.113
671.327	99.175
671.455	99.794
671.583	100.093
671.712	100.010
671.840	100.660
671.968	99.732
672.096	99.845
672.224	100.588
672.352	99.670
672.480	100.402
672.608	99.371
672.737	99.309
672.865	99.021
672.993	100.330
673.121	100.485
673.249	99.866
673.377	98.619
673.505	100.454
673.633	99.361
673.762	99.072
673.890	100.732
674.018	98.979
674.146	100.031
674.274	99.495
674.402	100.763
674.530	99.495
674.658	99.567
674.787	100.072
674.915	99.041
675.043	99.392
675.171	100.155
675.299	99.072
675.427	100.608
675.555	100.268
675.683	99.773
675.812	99.206
675.940	99.649
676.068	102.340
676.196	99.505
676.324	100.567
676.452	100.495
676.580	100.330
676.708	100.515
676.837	97.990
676.965	99.278
677.093	99.722
677.221	101.124
677.349	100.577
677.477	100.969
677.605	99.165
677.733	99.722
677.862	100.474
677.990	100.907
678.118	98.299
678.246	99.495
678.374	99.309
678.502	99.722
678.630	99.031
678.758	99.856
678.887	100.351
679.015	101.093
679.143	99.062
679.271	99.206
679.399	99.649
679.527	99.990
679.655	99.196
679.783	100.134
679.912	98.701
680.040	99.732
680.168	99.103
680.296	99.505
680.424	99.268
680.552	99.351
680.680	98.742
680.808	99.567
680.937	99.155
681.065	99.814
681.193	99.196
681.321	99.742
681.449	99.670
681.577	100.113
681.705	98.866
681.833	98.351
681.962	99.938
682.090	100.000
682.218	99.536
682.346	97.763
682.474	98.278
682.602	98.619
682.730	100.052
682.858	98.887
682.987	99.804
683.115	100.072
683.243	100.351
683.371	99.938
683.499	98.876
683.627	99.072
683.755	99.010
683.883	99.546
684.012	98.351
684.140	99.134
684.268	98.433
684.396	97.763
684.524	99.897
684.652	98.959
684.780	99.608
684.908	99.680
685.037	99.021
685.165	99.526
685.293	100.845
685.421	99.289
685.549	99.000
685.677	99.041
685.805	99.866
685.933	99.969
686.062	100.660
686.190	99.485
686.318	98.938
686.446	99.660
686.574	100.175
686.702	100.588
686.830	99.062
686.958	98.155
687.087	99.206
687.215	98.567
687.343	99.206
687.471	99.495
687.599	98.918
687.727	98.918
687.855	99.186
687.983	99.711
688.112	99.340
688.240	98.299
688.368	98.835
688.496	99.041
688.624	99.701
688.752	98.948
688.880	98.979
689.008	98.433
689.137	100.474
689.265	98.990
689.393	100.113
689.521	99.247
689.649	99.361
689.777	98.876
689.905	98.753
690.033	99.660
690.162	99.753
690.290	100.794
690.418	98.948
690.546	99.216
690.674	99.526
690.802	99.588
690.930	99.536
691.058	99.216
691.187	98.866
691.315	99.175
691.443	98.876
691.571	99.216
691.699	98.814
691.827	99.196
691.955	98.278
692.083	99.588
692.212	98.763
692.340	99.010
692.468	99.948
692.596	97.959
692.724	100.330
692.852	99.175
692.980	97.918
693.108	99.979
693.237	98.918
693.365	99.732
693.493	100.546
693.621	98.103
693.749	99.155
693.877	98.247
694.005	96.876
694.133	98.588
694.262	99.433
694.390	99.010
694.518	99.763
694.646	98.361
694.774	98.536
694.902	98.588
695.030	98.680
695.158	99.268
695.287	98.876
695.415	98.918
695.543	100.227
695.671	100.124
695.799	98.856
695.927	98.619
696.055	98.732
696.183	99.351
696.312	98.918
696.440	98.320
696.568	99.557
696.696	99.691
696.824	99.000
696.952	99.175
697.080	100.021
697.208	99.485
697.337	98.093
697.465	99.814
697.593	99.103
697.721	98.990
697.849	99.144
697.977	98.216
698.105	99.278
698.233	100.072
698.362	99.495
698.490	100.598
698.618	99.897
698.746	98.124
698.874	98.608
699.002	97.577
699.130	97.784
699.258	98.856
699.387	99.052
699.515	99.639
699.643	99.351
699.771	99.608
699.899	99.907
700.027	98.165
700.155	98.103
700.283	99.082
700.412	97.474
700.540	99.546
700.668	98.134
700.796	98.567
700.924	99.515
701.052	100.134
701.180	98.155
701.308	97.371
701.437	98.753
701.565	97.629
701.693	98.124
701.821	98.691
701.949	100.320
702.077	99.515
702.205	100.402
702.333	99.588
702.462	98.608
702.590	97.103
702.718	98.825
702.846	98.639
702.974	97.918
703.102	98.557
703.230	98.371
703.358	98.588
703.487	97.887
703.615	98.928
703.743	97.825
703.871	98.474
703.999	99.412
704.127	98.608
704.255	99.134
704.383	99.711
704.512	99.247
704.640	98.691
704.768	98.371
704.896	98.660
705.024	98.258
705.152	99.691
705.280	99.227
705.408	98.691
705.537	98.887
705.665	98.144
705.793	99.918
705.921	97.000
706.049	97.814
706.177	99.299
706.305	98.639
706.433	99.515
706.562	97.443
706.690	98.825
706.818	99.825
706.946	99.155
707.074	98.186
707.202	98.186
707.330	98.474
707.458	99.052
707.587	99.361
707.715	98.938
707.843	98.670
707.971	98.505
708.099	98.979
708.227	97.938
708.355	97.340
708.483	97.258
708.612	98.010
708.740	98.041
708.868	99.134
708.996	96.969
709.124	98.454
709.252	98.742
709.380	98.887
709.508	98.732
709.637	98.629
709.765	98.979
709.893	98.979
710.021	98.753
710.149	98.567
710.277	99.990
710.405	99.598
710.533	99.134
710.662	98.732
710.790	97.763
710.918	98.330
711.046	97.732
711.174	99.948
711.302	97.979
711.430	99.041
711.558	99.814
711.687	97.938
711.815	99.082
711.943	99.278
712.071	97.330
712.199	98.485
712.327	97.845
712.455	99.423
712.583	98.948
712.712	98.237
712.840	97.742
712.968	98.330
713.096	100.526
713.224	98.660
713.352	99.887
713.480	98.134
713.608	97.814
713.737	98.907
713.865	98.814
713.993	98.474
714.121	98.289
714.249	98.918
714.377	99.258
714.505	99.320
714.633	98.959
714.762	97.412
714.890	99.289
715.018	99.392
715.146	98.804
715.274	98.103
715.402	98.381
715.530	98.134
715.658	98.907
715.787	97.969
715.915	98.021
716.043	98.680
716.171	100.103
716.299	97.639
716.427	98.990
716.555	100.804
716.683	99.495
716.812	99.526
716.940	99.567
717.068	100.103
717.196	98.433
717.324	97.330
717.452	97.052
717.580	97.804
717.708	98.546
717.837	98.381
717.965	97.639
718.093	99.423
718.221	98.835
718.349	100.196
718.477	99.866
718.605	98.794
718.733	99.412
718.862	98.320
718.990	98.443
719.118	96.526
719.246	97.186
719.374	98.845
719.502	98.649
719.630	97.505
719.758	99.629
719.887	99.155
720.015	98.412
720.143	98.474
720.271	100.546
720.399	98.938
720.527	98.887
720.655	97.990
720.783	98.289
720.912	99.794
721.040	98.340
721.168	98.546
721.296	97.814
721.424	97.082
721.552	97.268
721.680	97.351
721.808	98.299
721.937	98.103
722.065	98.588
722.193	99.742
722.321	98.773
722.449	97.722
722.577	99.938
722.705	98.608
722.833	97.402
722.962	97.072
723.090	98.990
723.218	98.330
723.346	98.309
723.474	100.072
723.602	98.814
723.730	98.423
723.858	99.588
723.987	99.093
724.115	98.773
724.243	98.515
724.371	98.670
724.499	99.113
724.627	98.454
724.755	99.082
724.883	99.175
725.012	97.629
725.140	96.990
725.268	99.526
725.396	98.763
725.524	98.629
725.652	97.722
725.780	97.402
725.908	97.804
726.037	97.103
726.165	98.732
726.293	97.392
726.421	98.299
726.549	98.619
726.677	99.175
726.805	97.835
726.933	100.268
727.062	98.000
727.190	97.691
727.318	98.732
727.446	99.113
727.574	98.938
727.702	98.299
727.830	99.186
727.958	99.392
728.087	97.866
728.215	98.629
728.343	98.196
728.471	98.412
728.599	97.856
728.727	98.557
728.855	98.711
728.983	97.876
729.112	98.289
729.240	98.186
729.368	99.608
729.496	100.206
729.624	98.000
729.752	99.340
729.880	99.557
730.008	99.381
730.137	97.866
730.265	99.144
730.393	99.206
730.521	98.887
730.649	99.649
730.777	97.969
730.905	99.062
731.033	98.784
731.162	99.031
731.290	97.732
731.418	97.763
731.546	97.753
731.674	97.629
731.802	97.825
731.930	98.577
732.058	99.052
732.187	98.258
732.315	99.320
732.443	98.753
732.571	97.495
732.699	98.763
732.827	99.041
732.955	97.835
733.083	97.577
733.212	96.938
733.340	96.639
733.468	97.866
733.596	97.773
733.724	98.598
733.852	98.546
733.980	97.938
734.108	97.928
734.237	97.557
734.365	97.979
734.493	98.464
734.621	99.588
734.749	98.866
734.877	99.134
735.005	97.196
735.133	98.784
735.262	97.763
735.390	98.866
735.518	97.464
735.646	97.289
735.774	98.443
735.902	98.948
736.030	98.340
736.158	98.299
736.287	98.918
736.415	98.186
736.543	97.351
736.671	98.588
736.799	99.680
736.927	98.278
737.055	97.227
737.183	97.247
737.312	98.794
737.440	98.216
737.568	99.186
737.696	98.701
737.824	99.227
737.952	97.454
738.080	98.175
738.208	98.031
738.337	98.134
738.465	97.598
738.593	98.134
738.721	98.907
738.849	99.299
738.977	98.247
739.105	97.165
739.233	97.897
739.362	97.412
739.490	97.876
739.618	98.062
739.746	98.784
739.874	97.412
740.002	99.897
740.130	97.320
740.258	98.155
740.387	99.732
740.515	99.082
740.643	99.155
740.771	98.649
740.899	98.773
741.027	97.639
741.155	97.629
741.283	98.639
741.412	97.289
741.540	98.443
741.668	98.258
741.796	97.732
741.924	97.155
742.052	98.186
742.180	99.381
742.308	98.536
742.437	99.155
742.565	98.897
742.693	97.722
742.821	99.320
742.949	99.691
743.077	98.907
743.205	99.515
743.333	99.289
743.462	99.639
743.590	97.536
743.718	98.330
743.846	97.546
743.974	97.289
744.102	98.598
744.230	99.680
744.358	98.536
744.487	98.041
744.615	99.103
744.743	98.175
744.871	98.402
744.999	97.371
745.127	98.443
745.255	96.412
745.383	96.134
745.512	98.794
745.640	99.031
745.768	98.165
745.896	97.124
746.024	98.474
746.152	98.268
746.280	97.866
746.408	98.381
746.537	98.165
746.665	98.897
746.793	97.845
746.921	98.784
747.049	97.423
747.177	99.031
747.305	98.227
747.433	98.423
747.562	98.794
747.690	97.258
747.818	98.598
747.946	99.505
748.074	96.918
748.202	97.742
748.330	97.711
748.458	98.948
748.587	97.577
748.715	98.258
748.843	98.959
748.971	98.000
749.099	98.227
749.227	97.784
749.355	96.742
749.483	98.773
