sample14h_at_750.00nm_cut_at_1060.50Y_01.dat
19.06.2023
11:21:47
cut middle at Y: 1060.50
top cursor: 1109 down cursor: 1012 mean of: 97 lines , 2560 datapoints
wavelength(nm)	intensity[arb. units]
585.996	804.072
586.124	772.113
586.252	779.144
586.380	778.464
586.508	777.742
586.637	785.072
586.765	780.320
586.893	791.845
587.021	793.134
587.149	784.680
587.277	796.062
587.405	789.773
587.533	786.784
587.662	790.247
587.790	800.216
587.918	796.000
588.046	799.835
588.174	797.918
588.302	789.216
588.430	796.052
588.558	796.691
588.687	797.948
588.815	803.845
588.943	806.577
589.071	799.691
589.199	805.907
589.327	806.979
589.455	803.990
589.583	807.196
589.712	816.412
589.840	808.969
589.968	804.918
590.096	812.227
590.224	816.000
590.352	813.134
590.480	811.093
590.608	815.876
590.737	821.175
590.865	814.021
590.993	827.031
591.121	823.897
591.249	825.557
591.377	817.742
591.505	817.948
591.633	826.237
591.762	825.155
591.890	826.526
592.018	832.402
592.146	831.072
592.274	839.794
592.402	826.505
592.530	825.103
592.658	820.680
592.787	832.155
592.915	833.649
593.043	823.402
593.171	835.938
593.299	840.639
593.427	833.680
593.555	828.629
593.683	844.763
593.812	832.701
593.940	838.082
594.068	845.773
594.196	845.526
594.324	832.175
594.452	847.371
594.580	849.711
594.708	844.082
594.837	843.227
594.965	848.753
595.093	842.876
595.221	850.010
595.349	857.680
595.477	859.258
595.605	857.608
595.733	867.412
595.862	858.454
595.990	858.753
596.118	864.485
596.246	873.113
596.374	855.938
596.502	871.103
596.630	860.588
596.758	867.577
596.887	874.196
597.015	870.990
597.143	867.856
597.271	865.330
597.399	873.268
597.527	874.371
597.655	877.186
597.783	874.701
597.912	868.464
598.040	877.753
598.168	875.485
598.296	872.103
598.424	875.402
598.552	883.206
598.680	870.340
598.808	873.742
598.937	878.794
599.065	883.959
599.193	878.577
599.321	878.309
599.449	881.052
599.577	882.959
599.705	872.474
599.833	885.938
599.962	874.423
600.090	879.557
600.218	883.794
600.346	878.186
600.474	885.093
600.602	885.680
600.730	888.093
600.858	885.701
600.987	886.330
601.115	883.278
601.243	884.959
601.371	882.990
601.499	886.144
601.627	885.794
601.755	893.536
601.883	888.660
602.012	896.237
602.140	898.577
602.268	894.206
602.396	900.186
602.524	892.526
602.652	904.454
602.780	906.536
602.908	912.247
603.037	904.639
603.165	909.505
603.293	913.680
603.421	917.660
603.549	910.309
603.677	918.670
603.805	916.577
603.933	924.567
604.062	919.814
604.190	934.454
604.318	935.021
604.446	936.196
604.574	934.155
604.702	926.701
604.830	932.784
604.958	942.608
605.087	946.825
605.215	950.722
605.343	949.876
605.471	950.515
605.599	952.567
605.727	954.866
605.855	956.031
605.983	955.289
606.112	953.423
606.240	965.701
606.368	959.155
606.496	956.433
606.624	962.784
606.752	958.979
606.880	961.835
607.008	963.608
607.137	961.485
607.265	972.845
607.393	970.639
607.521	976.361
607.649	974.660
607.777	969.216
607.905	972.639
608.033	983.392
608.162	961.031
608.290	964.309
608.418	976.062
608.546	975.031
608.674	983.897
608.802	975.258
608.930	980.216
609.058	976.237
609.187	970.990
609.315	960.340
609.443	974.113
609.571	972.000
609.699	968.278
609.827	968.196
609.955	968.897
610.083	961.062
610.212	966.289
610.340	970.361
610.468	971.897
610.596	973.588
610.724	967.598
610.852	968.289
610.980	970.763
611.108	971.340
611.237	971.845
611.365	980.701
611.493	982.062
611.621	979.258
611.749	987.990
611.877	983.505
612.005	971.227
612.133	981.340
612.262	987.629
612.390	981.464
612.518	989.763
612.646	984.412
612.774	988.928
612.902	993.144
613.030	994.155
613.158	993.361
613.287	994.144
613.415	1001.567
613.543	998.052
613.671	997.670
613.799	995.227
613.927	993.557
614.055	1000.526
614.183	1015.495
614.312	1002.320
614.440	1012.629
614.568	1006.660
614.696	1017.938
614.824	1016.155
614.952	1019.093
615.080	1012.278
615.208	1019.959
615.337	1023.495
615.465	1016.165
615.593	1022.021
615.721	1024.567
615.849	1024.093
615.977	1033.763
616.105	1025.196
616.233	1029.247
616.362	1026.732
616.490	1022.082
616.618	1022.258
616.746	1032.691
616.874	1029.866
617.002	1032.876
617.130	1030.433
617.258	1040.639
617.387	1021.237
617.515	1028.670
617.643	1039.464
617.771	1036.814
617.899	1040.247
618.027	1036.928
618.155	1044.268
618.283	1036.598
618.412	1050.897
618.540	1045.124
618.668	1054.773
618.796	1033.588
618.924	1044.670
619.052	1045.670
619.180	1041.134
619.308	1049.443
619.437	1050.474
619.565	1044.680
619.693	1034.598
619.821	1054.299
619.949	1045.990
620.077	1045.608
620.205	1044.835
620.333	1051.794
620.462	1057.670
620.590	1059.918
620.718	1059.753
620.846	1058.010
620.974	1069.309
621.102	1051.701
621.230	1061.227
621.358	1063.897
621.487	1060.000
621.615	1062.412
621.743	1061.773
621.871	1055.361
621.999	1047.928
622.127	1056.402
622.255	1058.144
622.383	1065.000
622.512	1069.464
622.640	1055.186
622.768	1068.371
622.896	1061.856
623.024	1055.464
623.152	1070.515
623.280	1056.268
623.408	1059.722
623.537	1067.649
623.665	1065.742
623.793	1068.505
623.921	1066.711
624.049	1064.979
624.177	1065.763
624.305	1068.206
624.433	1074.010
624.562	1076.567
624.690	1053.928
624.818	1068.010
624.946	1069.753
625.074	1067.062
625.202	1070.619
625.330	1071.598
625.458	1071.155
625.587	1065.804
625.715	1068.979
625.843	1065.588
625.971	1070.000
626.099	1067.969
626.227	1069.732
626.355	1066.711
626.483	1076.804
626.612	1063.144
626.740	1066.062
626.868	1065.660
626.996	1077.814
627.124	1069.804
627.252	1064.660
627.380	1073.268
627.508	1070.082
627.637	1071.536
627.765	1076.753
627.893	1073.835
628.021	1064.021
628.149	1065.464
628.277	1069.134
628.405	1068.649
628.533	1064.711
628.662	1065.608
628.790	1077.330
628.918	1070.784
629.046	1076.165
629.174	1075.701
629.302	1069.856
629.430	1075.351
629.558	1077.309
629.687	1078.990
629.815	1068.897
629.943	1079.289
630.071	1080.062
630.199	1085.536
630.327	1078.835
630.455	1075.546
630.583	1087.670
630.712	1086.814
630.840	1078.784
630.968	1096.072
631.096	1088.072
631.224	1077.289
631.352	1083.021
631.480	1078.402
631.608	1085.918
631.737	1081.381
631.865	1096.124
631.993	1095.701
632.121	1092.876
632.249	1094.412
632.377	1104.021
632.505	1081.196
632.633	1094.536
632.762	1091.247
632.890	1097.227
633.018	1090.907
633.146	1088.897
633.274	1098.299
633.402	1086.505
633.530	1094.577
633.658	1094.381
633.787	1078.794
633.915	1088.443
634.043	1078.258
634.171	1090.247
634.299	1097.021
634.427	1080.433
634.555	1080.722
634.683	1080.784
634.812	1085.619
634.940	1093.990
635.068	1076.289
635.196	1076.784
635.324	1087.918
635.452	1081.454
635.580	1075.711
635.708	1075.247
635.837	1072.103
635.965	1073.031
636.093	1075.753
636.221	1077.959
636.349	1075.928
636.477	1073.629
636.605	1072.381
636.733	1061.732
636.862	1070.093
636.990	1065.505
637.118	1063.680
637.246	1068.918
637.374	1057.289
637.502	1051.928
637.630	1066.722
637.758	1057.216
637.887	1055.948
638.015	1055.402
638.143	1064.464
638.271	1045.649
638.399	1049.268
638.527	1048.093
638.655	1047.763
638.783	1056.515
638.912	1054.144
639.040	1045.113
639.168	1047.299
639.296	1048.990
639.424	1046.247
639.552	1052.412
639.680	1048.948
639.808	1038.588
639.937	1040.134
640.065	1050.763
640.193	1047.794
640.321	1040.660
640.449	1049.206
640.577	1046.093
640.705	1044.320
640.833	1040.990
640.962	1041.856
641.090	1038.144
641.218	1047.340
641.346	1029.691
641.474	1046.784
641.602	1039.897
641.730	1043.474
641.858	1037.237
641.987	1047.845
642.115	1051.206
642.243	1042.124
642.371	1049.639
642.499	1045.753
642.627	1051.371
642.755	1042.361
642.883	1045.990
643.012	1048.660
643.140	1042.041
643.268	1047.938
643.396	1035.227
643.524	1053.082
643.652	1053.186
643.780	1036.577
643.908	1048.093
644.037	1042.742
644.165	1036.722
644.293	1048.608
644.421	1057.021
644.549	1045.515
644.677	1043.515
644.805	1056.887
644.933	1043.093
645.062	1054.402
645.190	1046.072
645.318	1043.175
645.446	1054.907
645.574	1047.763
645.702	1039.392
645.830	1050.557
645.958	1066.711
646.087	1045.670
646.215	1047.485
646.343	1049.557
646.471	1041.928
646.599	1057.351
646.727	1047.691
646.855	1041.175
646.983	1041.536
647.112	1040.907
647.240	1053.289
647.368	1033.351
647.496	1046.247
647.624	1039.835
647.752	1049.309
647.880	1044.247
648.008	1046.216
648.137	1033.258
648.265	1026.763
648.393	1037.804
648.521	1039.412
648.649	1039.701
648.777	1029.990
648.905	1023.763
649.033	1020.227
649.162	1015.649
649.290	1029.948
649.418	1016.938
649.546	1023.526
649.674	1022.959
649.802	1021.680
649.930	1020.588
650.058	1011.474
650.187	1020.258
650.315	1012.845
650.443	1006.103
650.571	1014.948
650.699	1013.124
650.827	1014.804
650.955	1016.041
651.083	1011.021
651.212	1005.124
651.340	1012.000
651.468	1005.381
651.596	1011.866
651.724	1013.268
651.852	997.021
651.980	1006.825
652.108	1010.608
652.237	1001.010
652.365	997.144
652.493	1008.021
652.621	999.629
652.749	997.711
652.877	1002.072
653.005	999.897
653.133	1001.381
653.262	1003.433
653.390	995.505
653.518	998.546
653.646	994.474
653.774	985.299
653.902	1001.876
654.030	992.340
654.158	992.856
654.287	990.505
654.415	987.443
654.543	995.258
654.671	985.402
654.799	984.134
654.927	986.567
655.055	973.495
655.183	974.000
655.312	981.247
655.440	973.062
655.568	973.928
655.696	974.649
655.824	979.289
655.952	972.258
656.080	972.113
656.208	973.629
656.337	972.381
656.465	974.866
656.593	961.320
656.721	967.495
656.849	959.464
656.977	970.144
657.105	960.299
657.233	955.454
657.362	958.825
657.490	960.505
657.618	959.103
657.746	953.753
657.874	950.340
658.002	953.330
658.130	954.423
658.258	961.866
658.387	952.742
658.515	943.536
658.643	940.897
658.771	949.546
658.899	943.887
659.027	949.041
659.155	945.124
659.283	934.773
659.412	935.392
659.540	944.649
659.668	948.907
659.796	936.742
659.924	943.474
660.052	939.031
660.180	928.155
660.308	944.412
660.437	932.598
660.565	935.124
660.693	932.041
660.821	932.670
660.949	932.825
661.077	928.113
661.205	930.031
661.333	927.753
661.462	934.278
661.590	939.742
661.718	922.381
661.846	918.753
661.974	929.423
662.102	928.309
662.230	926.619
662.358	919.371
662.487	930.196
662.615	919.227
662.743	926.186
662.871	917.423
662.999	922.907
663.127	919.309
663.255	924.031
663.383	928.938
663.512	924.938
663.640	922.485
663.768	920.082
663.896	915.845
664.024	926.753
664.152	920.443
664.280	918.320
664.408	921.835
664.537	925.670
664.665	920.619
664.793	913.804
664.921	915.990
665.049	919.773
665.177	927.227
665.305	907.680
665.433	905.918
665.562	919.629
665.690	914.814
665.818	912.320
665.946	907.959
666.074	911.216
666.202	909.340
666.330	909.093
666.458	916.784
666.587	911.351
666.715	906.175
666.843	906.402
666.971	900.598
667.099	905.536
667.227	905.330
667.355	898.722
667.483	899.010
667.612	904.433
667.740	900.268
667.868	905.577
667.996	903.113
668.124	906.742
668.252	900.845
668.380	900.907
668.508	915.392
668.637	903.515
668.765	897.124
668.893	902.680
669.021	897.742
669.149	890.340
669.277	890.495
669.405	892.021
669.533	896.082
669.662	893.753
669.790	890.814
669.918	893.402
670.046	886.990
670.174	896.227
670.302	887.639
670.430	880.876
670.558	890.701
670.687	885.701
670.815	881.165
670.943	888.588
671.071	880.887
671.199	874.753
671.327	873.866
671.455	877.732
671.583	871.897
671.712	863.876
671.840	865.299
671.968	860.773
672.096	869.206
672.224	870.041
672.352	866.082
672.480	870.732
672.608	859.392
672.737	863.113
672.865	859.639
672.993	855.464
673.121	856.247
673.249	853.732
673.377	856.794
673.505	856.722
673.633	848.082
673.762	838.361
673.890	846.608
674.018	844.464
674.146	841.402
674.274	847.381
674.402	842.794
674.530	845.144
674.658	840.340
674.787	830.887
674.915	836.010
675.043	834.979
675.171	832.598
675.299	839.680
675.427	830.062
675.555	826.608
675.683	836.196
675.812	828.124
675.940	815.278
676.068	828.526
676.196	813.536
676.324	817.876
676.452	818.237
676.580	814.495
676.708	810.155
676.837	819.536
676.965	804.897
677.093	818.845
677.221	819.000
677.349	797.773
677.477	807.619
677.605	796.371
677.733	801.773
677.862	800.144
677.990	800.515
678.118	796.990
678.246	796.969
678.374	789.990
678.502	795.433
678.630	791.887
678.758	791.289
678.887	791.959
679.015	794.969
679.143	780.856
679.271	786.897
679.399	785.320
679.527	784.546
679.655	778.258
679.783	786.619
679.912	779.361
680.040	779.866
680.168	781.577
680.296	772.845
680.424	784.381
680.552	772.278
680.680	773.546
680.808	775.330
680.937	776.454
681.065	774.887
681.193	771.732
681.321	768.680
681.449	761.639
681.577	772.412
681.705	770.289
681.833	762.619
681.962	773.216
682.090	766.753
682.218	764.175
682.346	759.041
682.474	765.784
682.602	758.794
682.730	761.969
682.858	761.412
682.987	764.381
683.115	759.845
683.243	753.804
683.371	760.546
683.499	749.454
683.627	757.577
683.755	752.907
683.883	759.010
684.012	755.423
684.140	756.278
684.268	752.866
684.396	753.505
684.524	756.289
684.652	762.598
684.780	754.010
684.908	750.289
685.037	750.629
685.165	752.969
685.293	748.320
685.421	752.897
685.549	752.361
685.677	752.237
685.805	752.258
685.933	755.515
686.062	742.680
686.190	748.258
686.318	754.990
686.446	749.031
686.574	741.144
686.702	751.928
686.830	754.351
686.958	754.691
687.087	748.670
687.215	741.742
687.343	746.959
687.471	744.464
687.599	745.474
687.727	746.392
687.855	744.732
687.983	738.763
688.112	749.361
688.240	741.351
688.368	748.784
688.496	744.711
688.624	745.753
688.752	733.649
688.880	737.680
689.008	735.598
689.137	741.268
689.265	734.402
689.393	734.371
689.521	736.876
689.649	739.711
689.777	728.423
689.905	736.196
690.033	730.515
690.162	726.588
690.290	729.392
690.418	729.134
690.546	729.784
690.674	723.680
690.802	721.701
690.930	727.784
691.058	716.567
691.187	717.515
691.315	726.052
691.443	721.938
691.571	712.701
691.699	709.536
691.827	713.918
691.955	706.443
692.083	708.948
692.212	708.588
692.340	709.134
692.468	708.402
692.596	707.928
692.724	702.423
692.852	699.742
692.980	696.887
693.108	699.093
693.237	704.423
693.365	703.649
693.493	693.258
693.621	694.990
693.749	693.845
693.877	684.330
694.005	687.103
694.133	691.216
694.262	690.897
694.390	692.649
694.518	675.845
694.646	680.258
694.774	691.773
694.902	676.031
695.030	685.258
695.158	679.546
695.287	682.773
695.415	679.794
695.543	674.784
695.671	671.732
695.799	672.670
695.927	672.412
696.055	672.753
696.183	677.227
696.312	669.938
696.440	667.021
696.568	671.072
696.696	659.392
696.824	665.031
696.952	661.845
697.080	664.577
697.208	668.144
697.337	665.588
697.465	666.031
697.593	659.144
697.721	655.773
697.849	660.701
697.977	656.907
698.105	658.753
698.233	657.258
698.362	653.443
698.490	657.082
698.618	652.876
698.746	649.412
698.874	653.330
699.002	653.113
699.130	648.711
699.258	648.186
699.387	647.773
699.515	641.784
699.643	642.216
699.771	648.340
699.899	647.948
700.027	644.546
700.155	644.948
700.283	641.979
700.412	631.990
700.540	638.588
700.668	627.299
700.796	634.402
700.924	630.660
701.052	626.495
701.180	628.268
701.308	633.412
701.437	624.619
701.565	622.670
701.693	621.124
701.821	625.330
701.949	615.670
702.077	616.825
702.205	628.742
702.333	622.649
702.462	620.443
702.590	615.660
702.718	624.392
702.846	612.464
702.974	608.402
703.102	610.691
703.230	613.629
703.358	600.268
703.487	598.495
703.615	606.588
703.743	593.216
703.871	598.412
703.999	589.186
704.127	600.732
704.255	593.670
704.383	595.938
704.512	589.660
704.640	586.990
704.768	592.237
704.896	588.031
705.024	585.526
705.152	594.629
705.280	587.794
705.408	580.464
705.537	577.732
705.665	584.216
705.793	577.814
705.921	584.093
706.049	576.134
706.177	570.474
706.305	582.165
706.433	572.289
706.562	570.938
706.690	569.711
706.818	567.948
706.946	565.309
707.074	567.557
707.202	563.722
707.330	562.835
707.458	565.186
707.587	566.897
707.715	561.722
707.843	560.454
707.971	557.876
708.099	562.897
708.227	557.742
708.355	549.619
708.483	555.928
708.612	552.165
708.740	557.402
708.868	555.814
708.996	547.031
709.124	555.443
709.252	552.711
709.380	550.062
709.508	542.536
709.637	548.546
709.765	542.186
709.893	544.691
710.021	541.938
710.149	543.577
710.277	538.165
710.405	548.371
710.533	537.948
710.662	533.216
710.790	542.691
710.918	536.165
711.046	538.959
711.174	539.433
711.302	534.515
711.430	537.433
711.558	538.691
711.687	534.031
711.815	531.237
711.943	536.588
712.071	536.897
712.199	525.227
712.327	529.784
712.455	532.701
712.583	530.423
712.712	530.134
712.840	526.794
712.968	527.907
713.096	535.887
713.224	530.887
713.352	529.938
713.480	530.990
713.608	522.598
713.737	526.433
713.865	527.526
713.993	522.330
714.121	526.722
714.249	520.918
714.377	521.742
714.505	517.660
714.633	520.021
714.762	511.794
714.890	521.474
715.018	519.309
715.146	518.814
715.274	513.969
715.402	514.588
715.530	519.433
715.658	512.835
715.787	519.660
715.915	513.175
716.043	513.165
716.171	518.660
716.299	516.856
716.427	517.732
716.555	520.340
716.683	509.340
716.812	507.918
716.940	515.979
717.068	512.412
717.196	509.186
717.324	504.577
717.452	509.577
717.580	504.742
717.708	509.897
717.837	501.619
717.965	509.866
718.093	508.134
718.221	504.660
718.349	505.742
718.477	509.381
718.605	498.804
718.733	500.577
718.862	498.402
718.990	500.557
719.118	498.928
719.246	494.753
719.374	496.247
719.502	503.289
719.630	501.381
719.758	501.247
719.887	502.577
720.015	494.412
720.143	485.464
720.271	497.186
720.399	496.134
720.527	496.268
720.655	488.000
720.783	484.649
720.912	490.567
721.040	485.711
721.168	485.062
721.296	486.856
721.424	488.928
721.552	486.577
721.680	480.320
721.808	482.794
721.937	485.495
722.065	479.649
722.193	477.577
722.321	479.402
722.449	472.948
722.577	480.103
722.705	472.948
722.833	468.443
722.962	475.351
723.090	467.134
723.218	468.608
723.346	466.381
723.474	473.237
723.602	468.588
723.730	460.526
723.858	463.639
723.987	463.969
724.115	455.794
724.243	464.392
724.371	458.629
724.499	466.258
724.627	459.794
724.755	462.268
724.883	467.670
725.012	457.526
725.140	452.351
725.268	461.247
725.396	454.423
725.524	453.206
725.652	450.856
725.780	452.278
725.908	449.722
726.037	448.289
726.165	449.052
726.293	444.351
726.421	449.928
726.549	444.278
726.677	445.082
726.805	443.660
726.933	449.186
727.062	438.052
727.190	442.443
727.318	441.928
727.446	443.969
727.574	442.732
727.702	436.670
727.830	439.515
727.958	437.670
728.087	439.969
728.215	436.979
728.343	438.392
728.471	441.134
728.599	437.320
728.727	439.340
728.855	434.649
728.983	430.649
729.112	427.711
729.240	429.361
729.368	425.000
729.496	433.701
729.624	426.062
729.752	430.134
729.880	423.887
730.008	426.897
730.137	426.113
730.265	425.485
730.393	423.144
730.521	423.072
730.649	425.598
730.777	419.495
730.905	417.134
731.033	418.082
731.162	420.577
731.290	420.742
731.418	421.052
731.546	417.103
731.674	418.557
731.802	420.814
731.930	416.433
732.058	414.887
732.187	418.567
732.315	412.309
732.443	419.000
732.571	419.464
732.699	418.742
732.827	416.546
732.955	417.134
733.083	417.289
733.212	416.103
733.340	413.608
733.468	415.784
733.596	412.691
733.724	406.670
733.852	415.814
733.980	409.124
734.108	412.990
734.237	411.309
734.365	408.598
734.493	409.031
734.621	412.268
734.749	413.175
734.877	410.010
735.005	408.515
735.133	410.629
735.262	413.804
735.390	411.773
735.518	407.381
735.646	408.299
735.774	407.577
735.902	409.082
736.030	406.732
736.158	411.567
736.287	410.918
736.415	406.629
736.543	405.649
736.671	404.835
736.799	406.113
736.927	404.485
737.055	405.103
737.183	403.454
737.312	408.062
737.440	399.845
737.568	407.309
737.696	406.876
737.824	405.536
737.952	405.660
738.080	399.485
738.208	400.608
738.337	398.948
738.465	403.227
738.593	394.763
738.721	398.505
738.849	402.144
738.977	395.175
739.105	403.474
739.233	391.124
739.362	397.340
739.490	391.536
739.618	396.206
739.746	393.423
739.874	395.649
740.002	396.072
740.130	390.680
740.258	397.660
740.387	399.979
740.515	396.268
740.643	394.711
740.771	391.340
740.899	390.144
741.027	389.928
741.155	387.247
741.283	388.784
741.412	389.093
741.540	395.629
741.668	389.515
741.796	392.856
741.924	389.876
