sample14u_at_750.00nm_cut_at_1060.50Y_01.dat
19.06.2023
11:21:23
cut middle at Y: 1060.50
top cursor: 1109 down cursor: 1012 mean of: 97 lines , 2560 datapoints
wavelength(nm)	intensity[arb. units]
585.996	1884.031
586.124	1828.309
586.252	1811.670
586.380	1822.351
586.508	1820.845
586.637	1827.041
586.765	1834.763
586.893	1836.423
587.021	1831.722
587.149	1841.495
587.277	1842.619
587.405	1850.856
587.533	1844.515
587.662	1838.763
587.790	1859.856
587.918	1845.753
588.046	1858.598
588.174	1854.928
588.302	1861.155
588.430	1855.814
588.558	1857.773
588.687	1866.165
588.815	1875.165
588.943	1879.361
589.071	1861.732
589.199	1870.010
589.327	1866.784
589.455	1867.247
589.583	1878.918
589.712	1881.361
589.840	1892.742
589.968	1872.423
590.096	1886.804
590.224	1895.567
590.352	1884.072
590.480	1887.309
590.608	1888.588
590.737	1870.701
590.865	1882.608
590.993	1905.433
591.121	1892.340
591.249	1887.495
591.377	1886.309
591.505	1893.289
591.633	1884.979
591.762	1903.897
591.890	1903.289
592.018	1899.392
592.146	1902.629
592.274	1916.897
592.402	1901.876
592.530	1897.670
592.658	1896.753
592.787	1908.918
592.915	1923.052
593.043	1916.196
593.171	1909.000
593.299	1930.814
593.427	1908.948
593.555	1924.753
593.683	1926.608
593.812	1932.485
593.940	1954.897
594.068	1938.289
594.196	1959.021
594.324	1954.124
594.452	1970.660
594.580	1960.742
594.708	1969.216
594.837	1957.175
594.965	1973.093
595.093	1982.010
595.221	1973.763
595.349	1972.124
595.477	1981.113
595.605	1982.010
595.733	2023.134
595.862	2008.763
595.990	1996.381
596.118	2008.804
596.246	2009.113
596.374	2010.526
596.502	2031.928
596.630	2029.216
596.758	2018.113
596.887	2027.402
597.015	2037.784
597.143	2020.567
597.271	2019.454
597.399	2042.649
597.527	2036.392
597.655	2029.216
597.783	2041.948
597.912	2031.546
598.040	2059.649
598.168	2049.103
598.296	2029.227
598.424	2016.000
598.552	2030.247
598.680	2019.454
598.808	2021.856
598.937	2057.196
599.065	2049.402
599.193	2024.124
599.321	2011.701
599.449	2045.959
599.577	2031.175
599.705	2038.021
599.833	2033.371
599.962	2023.742
600.090	2046.918
600.218	2030.485
600.346	2032.175
600.474	2037.113
600.602	2042.144
600.730	2041.268
600.858	2048.608
600.987	2039.887
601.115	2026.031
601.243	2040.268
601.371	2052.887
601.499	2045.124
601.627	2050.175
601.755	2071.227
601.883	2068.990
602.012	2059.474
602.140	2071.289
602.268	2073.052
602.396	2092.979
602.524	2082.732
602.652	2091.845
602.780	2108.031
602.908	2109.680
603.037	2120.979
603.165	2111.732
603.293	2124.835
603.421	2132.897
603.549	2130.907
603.677	2151.155
603.805	2146.155
603.933	2163.845
604.062	2156.546
604.190	2172.196
604.318	2171.351
604.446	2179.928
604.574	2171.278
604.702	2199.639
604.830	2190.289
604.958	2210.567
605.087	2234.010
605.215	2220.062
605.343	2226.959
605.471	2245.124
605.599	2232.155
605.727	2241.763
605.855	2231.093
605.983	2246.124
606.112	2262.856
606.240	2272.093
606.368	2274.309
606.496	2267.165
606.624	2265.928
606.752	2259.299
606.880	2271.320
607.008	2291.412
607.137	2292.691
607.265	2262.402
607.393	2296.165
607.521	2273.237
607.649	2266.144
607.777	2277.763
607.905	2288.247
608.033	2286.237
608.162	2272.309
608.290	2295.670
608.418	2298.196
608.546	2280.794
608.674	2294.474
608.802	2276.289
608.930	2278.722
609.058	2285.052
609.187	2280.072
609.315	2293.608
609.443	2278.598
609.571	2296.330
609.699	2285.227
609.827	2283.433
609.955	2286.134
610.083	2277.680
610.212	2268.938
610.340	2292.546
610.468	2291.670
610.596	2300.155
610.724	2284.175
610.852	2288.588
610.980	2289.000
611.108	2289.299
611.237	2296.526
611.365	2292.010
611.493	2295.000
611.621	2291.082
611.749	2311.660
611.877	2319.711
612.005	2322.433
612.133	2293.835
612.262	2308.340
612.390	2324.577
612.518	2341.753
612.646	2333.237
612.774	2324.258
612.902	2344.072
613.030	2341.320
613.158	2340.546
613.287	2356.289
613.415	2350.866
613.543	2364.598
613.671	2360.041
613.799	2359.454
613.927	2374.804
614.055	2394.186
614.183	2416.278
614.312	2368.577
614.440	2410.082
614.568	2399.918
614.696	2406.567
614.824	2435.443
614.952	2431.268
615.080	2414.691
615.208	2420.742
615.337	2434.794
615.465	2445.196
615.593	2431.134
615.721	2448.918
615.849	2453.619
615.977	2454.371
616.105	2453.701
616.233	2447.237
616.362	2472.959
616.490	2457.784
616.618	2460.309
616.746	2482.371
616.874	2500.320
617.002	2488.175
617.130	2502.433
617.258	2518.371
617.387	2475.454
617.515	2479.196
617.643	2474.526
617.771	2503.814
617.899	2489.897
618.027	2470.165
618.155	2530.454
618.283	2472.979
618.412	2495.340
618.540	2535.134
618.668	2515.577
618.796	2495.041
618.924	2555.866
619.052	2496.907
619.180	2501.629
619.308	2525.918
619.437	2512.381
619.565	2515.113
619.693	2504.340
619.821	2529.763
619.949	2519.010
620.077	2536.433
620.205	2533.330
620.333	2555.464
620.462	2539.299
620.590	2565.237
620.718	2536.320
620.846	2563.526
620.974	2567.866
621.102	2549.711
621.230	2533.711
621.358	2565.629
621.487	2520.330
621.615	2546.557
621.743	2545.691
621.871	2545.175
621.999	2568.608
622.127	2550.691
622.255	2547.825
622.383	2567.763
622.512	2538.474
622.640	2612.165
622.768	2533.289
622.896	2554.392
623.024	2545.784
623.152	2609.608
623.280	2586.856
623.408	2543.443
623.537	2573.784
623.665	2557.392
623.793	2571.402
623.921	2553.423
624.049	2535.216
624.177	2559.660
624.305	2567.887
624.433	2575.289
624.562	2536.423
624.690	2568.732
624.818	2587.196
624.946	2643.062
625.074	2567.289
625.202	2549.000
625.330	2537.753
625.458	2589.691
625.587	2548.227
625.715	2590.206
625.843	2605.784
625.971	2551.773
626.099	2556.670
626.227	2569.546
626.355	2564.680
626.483	2617.082
626.612	2559.485
626.740	2565.649
626.868	2597.041
626.996	2552.567
627.124	2559.598
627.252	2543.948
627.380	2576.206
627.508	2567.237
627.637	2573.732
627.765	2591.021
627.893	2576.351
628.021	2561.732
628.149	2594.227
628.277	2599.722
628.405	2623.773
628.533	2564.186
628.662	2604.144
628.790	2585.124
628.918	2595.804
629.046	2592.320
629.174	2590.021
629.302	2665.835
629.430	2596.124
629.558	2609.309
629.687	2617.722
629.815	2617.928
629.943	2646.784
630.071	2642.515
630.199	2629.784
630.327	2642.588
630.455	2597.619
630.583	2666.103
630.712	2649.206
630.840	2634.340
630.968	2675.598
631.096	2645.144
631.224	2622.320
631.352	2644.000
631.480	2656.144
631.608	2640.072
631.737	2723.639
631.865	2790.134
631.993	2649.371
632.121	2715.990
632.249	2726.309
632.377	2702.381
632.505	2685.010
632.633	2638.928
632.762	2710.526
632.890	2737.670
633.018	2665.371
633.146	2658.216
633.274	2691.794
633.402	2656.144
633.530	2640.454
633.658	2749.825
633.787	2645.320
633.915	2712.969
634.043	2662.959
634.171	2663.175
634.299	2683.443
634.427	2731.227
634.555	2701.361
634.683	2684.216
634.812	2648.773
634.940	2672.907
635.068	2632.938
635.196	2671.124
635.324	2662.423
635.452	2694.979
635.580	2636.938
635.708	2633.237
635.837	2691.072
635.965	2661.134
636.093	2631.536
636.221	2627.278
636.349	2675.948
636.477	2602.175
636.605	2714.680
636.733	2619.021
636.862	2616.072
636.990	2634.485
637.118	2665.103
637.246	2637.763
637.374	2616.938
637.502	2594.495
637.630	2581.938
637.758	2600.990
637.887	2576.010
638.015	2596.278
638.143	2592.711
638.271	2595.237
638.399	2590.237
638.527	2574.814
638.655	2578.289
638.783	2661.216
638.912	2609.474
639.040	2575.639
639.168	2595.660
639.296	2581.732
639.424	2651.701
639.552	2554.979
639.680	2568.835
639.808	2596.526
639.937	2547.887
640.065	2570.485
640.193	2623.155
640.321	2565.072
640.449	2609.021
640.577	2598.845
640.705	2580.402
640.833	2597.371
640.962	2573.381
641.090	2556.247
641.218	2558.299
641.346	2558.186
641.474	2579.680
641.602	2563.464
641.730	2554.351
641.858	2563.546
641.987	2601.454
642.115	2562.423
642.243	2590.845
642.371	2583.526
642.499	2576.814
642.627	2577.392
642.755	2621.742
642.883	2640.010
643.012	2583.144
643.140	2580.598
643.268	2576.938
643.396	2586.258
643.524	2661.443
643.652	2576.928
643.780	2582.546
643.908	2583.990
644.037	2621.041
644.165	2572.887
644.293	2588.990
644.421	2570.412
644.549	2631.536
644.677	2593.722
644.805	2612.474
644.933	2590.247
645.062	2604.536
645.190	2620.835
645.318	2629.711
645.446	2606.113
645.574	2610.856
645.702	2598.155
645.830	2711.124
645.958	2609.979
646.087	2687.423
646.215	2596.072
646.343	2709.289
646.471	2627.959
646.599	2643.649
646.727	2599.814
646.855	2592.742
646.983	2634.278
647.112	2589.639
647.240	2695.979
647.368	2602.557
647.496	2626.423
647.624	2572.825
647.752	2586.629
647.880	2570.258
648.008	2599.711
648.137	2576.979
648.265	2563.722
648.393	2564.907
648.521	2592.619
648.649	2576.515
648.777	2567.021
648.905	2547.103
649.033	2558.392
649.162	2579.464
649.290	2529.515
649.418	2567.608
649.546	2571.660
649.674	2595.814
649.802	2551.052
649.930	2575.701
650.058	2532.309
650.187	2555.897
650.315	2540.423
650.443	2536.897
650.571	2531.196
650.699	2526.990
650.827	2529.062
650.955	2524.330
651.083	2521.392
651.212	2536.598
651.340	2562.381
651.468	2528.041
651.596	2507.711
651.724	2505.897
651.852	2511.794
651.980	2495.196
652.108	2532.464
652.237	2509.093
652.365	2511.485
652.493	2481.711
652.621	2496.856
652.749	2501.711
652.877	2475.691
653.005	2489.887
653.133	2482.258
653.262	2484.175
653.390	2472.258
653.518	2499.381
653.646	2478.299
653.774	2500.443
653.902	2488.505
654.030	2468.567
654.158	2469.392
654.287	2469.680
654.415	2449.423
654.543	2459.175
654.671	2466.907
654.799	2436.928
654.927	2440.186
655.055	2442.113
655.183	2438.000
655.312	2434.381
655.440	2445.990
655.568	2431.948
655.696	2429.670
655.824	2456.021
655.952	2425.680
656.080	2404.701
656.208	2460.938
656.337	2410.258
656.465	2446.309
656.593	2433.031
656.721	2404.536
656.849	2409.175
656.977	2412.134
657.105	2418.794
657.233	2390.134
657.362	2399.021
657.490	2399.825
657.618	2390.546
657.746	2382.134
657.874	2378.680
658.002	2388.031
658.130	2382.309
658.258	2381.887
658.387	2383.392
658.515	2355.732
658.643	2367.629
658.771	2368.237
658.899	2350.258
659.027	2358.258
659.155	2347.320
659.283	2362.464
659.412	2333.928
659.540	2345.052
659.668	2341.474
659.796	2317.536
659.924	2340.113
660.052	2332.515
660.180	2311.124
660.308	2332.464
660.437	2337.825
660.565	2302.660
660.693	2312.021
660.821	2309.670
660.949	2318.041
661.077	2300.546
661.205	2303.031
661.333	2300.474
661.462	2306.144
661.590	2302.588
661.718	2284.206
661.846	2286.196
661.974	2304.732
662.102	2291.031
662.230	2281.887
662.358	2281.144
662.487	2291.979
662.615	2283.588
662.743	2292.134
662.871	2270.753
662.999	2274.629
663.127	2266.134
663.255	2279.485
663.383	2291.289
663.512	2281.134
663.640	2282.175
663.768	2274.773
663.896	2266.175
664.024	2263.722
664.152	2263.144
664.280	2255.464
664.408	2245.753
664.537	2275.959
664.665	2245.897
664.793	2233.113
664.921	2230.361
665.049	2257.361
665.177	2256.866
665.305	2264.887
665.433	2255.093
665.562	2247.814
665.690	2238.124
665.818	2241.897
665.946	2249.340
666.074	2229.959
666.202	2247.711
666.330	2243.000
666.458	2245.443
666.587	2230.175
666.715	2248.134
666.843	2234.959
666.971	2240.412
667.099	2238.557
667.227	2246.876
667.355	2223.845
667.483	2234.526
667.612	2225.247
667.740	2231.969
667.868	2234.763
667.996	2214.227
668.124	2213.175
668.252	2224.732
668.380	2205.691
668.508	2224.938
668.637	2205.608
668.765	2207.897
668.893	2211.938
669.021	2206.216
669.149	2201.649
669.277	2194.113
669.405	2190.021
669.533	2200.876
669.662	2188.196
669.790	2186.742
669.918	2195.309
670.046	2183.000
670.174	2183.072
670.302	2178.113
670.430	2174.278
670.558	2164.567
670.687	2176.474
670.815	2159.495
670.943	2175.608
671.071	2147.309
671.199	2164.897
671.327	2148.763
671.455	2148.959
671.583	2141.577
671.712	2132.990
671.840	2128.041
671.968	2118.588
672.096	2121.505
672.224	2118.557
672.352	2108.464
672.480	2114.876
672.608	2106.567
672.737	2098.155
672.865	2092.515
672.993	2081.990
673.121	2084.825
673.249	2089.649
673.377	2070.433
673.505	2073.340
673.633	2070.041
673.762	2053.536
673.890	2059.103
674.018	2064.216
674.146	2051.680
674.274	2039.928
674.402	2034.979
674.530	2030.505
674.658	2025.691
674.787	2018.216
674.915	2023.804
675.043	2016.536
675.171	2006.206
675.299	2000.402
675.427	1982.804
675.555	1998.103
675.683	2002.010
675.812	1981.309
675.940	1965.082
676.068	1980.845
676.196	1979.536
676.324	1968.536
676.452	1960.784
676.580	1962.216
676.708	1954.206
676.837	1969.515
676.965	1944.722
677.093	1947.629
677.221	1943.093
677.349	1914.773
677.477	1921.701
677.605	1907.041
677.733	1917.010
677.862	1910.598
677.990	1902.918
678.118	1907.320
678.246	1895.649
678.374	1897.845
678.502	1893.536
678.630	1884.412
678.758	1890.536
678.887	1885.237
679.015	1898.722
679.143	1875.722
679.271	1872.258
679.399	1877.948
679.527	1855.907
679.655	1851.784
679.783	1869.247
679.912	1846.536
680.040	1846.186
680.168	1849.433
680.296	1833.072
680.424	1843.794
680.552	1829.062
680.680	1833.784
680.808	1823.567
680.937	1830.691
681.065	1813.928
681.193	1803.814
681.321	1830.629
681.449	1812.660
681.577	1801.268
681.705	1792.567
681.833	1813.670
681.962	1797.216
682.090	1804.010
682.218	1800.784
682.346	1793.711
682.474	1799.402
682.602	1808.876
682.730	1793.608
682.858	1791.742
682.987	1786.608
683.115	1770.031
683.243	1776.866
683.371	1784.052
683.499	1758.144
683.627	1773.536
683.755	1760.062
683.883	1771.052
684.012	1759.000
684.140	1753.588
684.268	1750.732
684.396	1757.495
684.524	1767.897
684.652	1765.474
684.780	1771.835
684.908	1763.619
685.037	1738.526
685.165	1762.598
685.293	1744.423
685.421	1746.814
685.549	1749.299
685.677	1762.392
685.805	1741.804
685.933	1745.072
686.062	1739.959
686.190	1734.835
686.318	1747.711
686.446	1733.979
686.574	1729.330
686.702	1739.134
686.830	1731.784
686.958	1724.433
687.087	1729.113
687.215	1710.330
687.343	1710.010
687.471	1724.340
687.599	1698.784
687.727	1715.546
687.855	1703.351
687.983	1707.289
688.112	1715.649
688.240	1698.464
688.368	1704.206
688.496	1705.340
688.624	1690.938
688.752	1701.619
688.880	1683.423
689.008	1671.371
689.137	1685.557
689.265	1684.979
689.393	1674.784
689.521	1673.959
689.649	1667.103
689.777	1665.423
689.905	1651.052
690.033	1650.856
690.162	1646.515
690.290	1632.866
690.418	1648.948
690.546	1645.021
690.674	1655.268
690.802	1631.536
690.930	1635.825
691.058	1623.093
691.187	1613.722
691.315	1635.649
691.443	1615.392
691.571	1628.742
691.699	1622.876
691.827	1624.309
691.955	1600.691
692.083	1592.433
692.212	1603.309
692.340	1600.155
692.468	1598.897
692.596	1589.567
692.724	1583.876
692.852	1583.660
692.980	1568.175
693.108	1564.330
693.237	1566.546
693.365	1555.660
693.493	1566.031
693.621	1551.433
693.749	1552.722
693.877	1541.361
694.005	1541.082
694.133	1547.402
694.262	1539.711
694.390	1534.742
694.518	1508.216
694.646	1523.948
694.774	1529.608
694.902	1510.711
695.030	1533.856
695.158	1506.557
695.287	1512.732
695.415	1499.742
695.543	1506.010
695.671	1500.186
695.799	1490.691
695.927	1490.072
696.055	1491.247
696.183	1495.835
696.312	1486.258
696.440	1478.876
696.568	1476.175
696.696	1467.371
696.824	1471.299
696.952	1468.763
697.080	1461.433
697.208	1466.454
697.337	1445.041
697.465	1451.309
697.593	1456.165
697.721	1451.856
697.849	1454.649
697.977	1447.175
698.105	1447.660
698.233	1457.268
698.362	1428.186
698.490	1434.536
698.618	1436.072
698.746	1422.412
698.874	1418.835
699.002	1427.887
699.130	1418.052
699.258	1421.165
699.387	1408.598
699.515	1398.309
699.643	1406.660
699.771	1400.010
699.899	1414.082
700.027	1393.237
700.155	1394.113
700.283	1408.794
700.412	1381.144
700.540	1387.196
700.668	1378.990
700.796	1372.227
700.924	1368.433
701.052	1370.928
701.180	1363.196
701.308	1361.371
701.437	1359.093
701.565	1355.247
701.693	1344.959
701.821	1347.814
701.949	1338.351
702.077	1327.330
702.205	1336.320
702.333	1331.567
702.462	1331.082
702.590	1314.268
702.718	1332.134
702.846	1316.485
702.974	1308.155
703.102	1309.474
703.230	1303.155
703.358	1292.876
703.487	1283.856
703.615	1281.536
703.743	1276.237
703.871	1276.093
703.999	1272.258
704.127	1267.557
704.255	1267.041
704.383	1271.773
704.512	1254.474
704.640	1249.856
704.768	1247.320
704.896	1250.000
705.024	1236.722
705.152	1238.485
705.280	1234.928
705.408	1225.990
705.537	1231.670
705.665	1220.897
705.793	1218.505
705.921	1209.454
706.049	1208.495
706.177	1213.144
706.305	1215.825
706.433	1197.340
706.562	1193.031
706.690	1185.278
706.818	1191.660
706.946	1186.526
707.074	1181.515
707.202	1176.732
707.330	1166.876
707.458	1171.103
707.587	1172.041
707.715	1171.155
707.843	1150.835
707.971	1158.175
708.099	1151.598
708.227	1144.495
708.355	1142.536
708.483	1150.433
708.612	1149.969
708.740	1144.763
708.868	1132.165
708.996	1132.402
709.124	1129.577
709.252	1126.608
709.380	1121.392
709.508	1104.938
709.637	1110.186
709.765	1104.608
709.893	1096.722
710.021	1112.093
710.149	1108.959
710.277	1106.000
710.405	1105.175
710.533	1099.619
710.662	1084.278
710.790	1100.979
710.918	1093.608
711.046	1101.825
711.174	1094.464
711.302	1087.196
711.430	1091.093
711.558	1087.948
711.687	1078.505
711.815	1089.454
711.943	1079.495
712.071	1079.010
712.199	1080.639
712.327	1063.093
712.455	1064.031
712.583	1073.113
712.712	1073.093
712.840	1061.804
712.968	1052.546
713.096	1060.732
713.224	1064.165
713.352	1059.454
713.480	1059.433
713.608	1055.237
713.737	1040.773
713.865	1047.371
713.993	1042.959
714.121	1036.536
714.249	1043.268
714.377	1042.660
714.505	1037.990
714.633	1031.454
714.762	1030.598
714.890	1033.835
715.018	1031.113
715.146	1025.691
715.274	1021.876
715.402	1022.485
715.530	1026.660
715.658	1016.918
715.787	1019.763
715.915	1019.948
716.043	1011.959
716.171	1017.010
716.299	1021.010
716.427	1020.773
716.555	1012.959
716.683	1003.124
716.812	1011.155
716.940	997.082
717.068	1000.794
717.196	1002.113
717.324	997.072
717.452	995.907
717.580	996.289
717.708	995.814
717.837	992.680
717.965	986.443
718.093	988.835
718.221	976.000
718.349	972.722
718.477	982.660
718.605	970.763
718.733	970.196
718.862	969.433
718.990	961.866
719.118	963.763
719.246	956.670
719.374	957.773
719.502	972.031
719.630	955.948
719.758	961.474
719.887	957.670
720.015	958.990
720.143	948.134
720.271	942.577
720.399	951.546
720.527	940.134
720.655	949.794
720.783	935.433
720.912	938.227
721.040	936.093
721.168	929.320
721.296	927.835
721.424	924.103
721.552	929.722
721.680	915.691
721.808	921.649
721.937	923.072
722.065	919.062
722.193	907.598
722.321	911.412
722.449	907.546
722.577	904.814
722.705	895.577
722.833	901.351
722.962	903.804
723.090	897.660
723.218	893.495
723.346	885.969
723.474	891.753
723.602	884.371
723.730	877.505
723.858	876.144
723.987	880.258
724.115	870.629
724.243	873.608
724.371	872.062
724.499	874.134
724.627	863.711
724.755	860.938
724.883	864.381
725.012	858.649
725.140	858.979
725.268	858.639
725.396	848.464
725.524	847.299
725.652	844.381
725.780	844.577
725.908	840.371
726.037	845.753
726.165	844.567
726.293	824.711
726.421	831.351
726.549	830.907
726.677	832.887
726.805	827.247
726.933	826.825
727.062	823.010
727.190	820.495
727.318	820.629
727.446	825.454
727.574	817.041
727.702	806.062
727.830	817.773
727.958	811.557
728.087	802.237
728.215	805.464
728.343	805.918
728.471	794.557
728.599	801.474
728.727	793.216
728.855	802.392
728.983	787.588
729.112	791.433
729.240	798.227
729.368	784.691
729.496	782.577
729.624	784.598
729.752	794.124
729.880	782.237
730.008	780.103
730.137	778.072
730.265	779.021
730.393	776.021
730.521	778.134
730.649	773.423
730.777	765.629
730.905	767.464
731.033	765.247
731.162	771.227
731.290	769.093
731.418	765.144
731.546	760.227
731.674	764.175
731.802	753.825
731.930	759.186
732.058	752.423
732.187	758.103
732.315	755.351
732.443	759.196
732.571	749.763
732.699	756.041
732.827	747.443
732.955	748.268
733.083	745.619
733.212	748.845
733.340	749.856
733.468	744.979
733.596	741.309
733.724	742.361
733.852	736.443
733.980	736.526
734.108	740.959
734.237	738.732
734.365	738.196
734.493	740.959
734.621	730.907
734.749	734.330
734.877	731.969
735.005	738.072
735.133	735.031
735.262	738.763
735.390	731.691
735.518	724.577
735.646	725.021
735.774	731.794
735.902	725.711
736.030	723.021
736.158	722.103
