sample4u_at_750.00nm_cut_at_1060.50Y_01.dat
19.06.2023
11:06:48
cut middle at Y: 1060.50
top cursor: 1109 down cursor: 1012 mean of: 97 lines , 2560 datapoints
wavelength(nm)	intensity[arb. units]
585.996	2075.474
586.124	2013.928
586.252	2004.928
586.380	2001.278
586.508	2008.134
586.637	1998.072
586.765	2004.536
586.893	2013.247
587.021	2030.876
587.149	2026.227
587.277	2026.392
587.405	2027.443
587.533	2018.660
587.662	2042.742
587.790	2040.907
587.918	2041.918
588.046	2035.897
588.174	2039.206
588.302	2050.680
588.430	2031.804
588.558	2048.216
588.687	2048.082
588.815	2069.835
588.943	2072.588
589.071	2060.474
589.199	2073.361
589.327	2061.082
589.455	2047.134
589.583	2070.000
589.712	2065.804
589.840	2075.155
589.968	2064.010
590.096	2080.433
590.224	2086.144
590.352	2078.825
590.480	2083.763
590.608	2079.103
590.737	2077.505
590.865	2079.856
590.993	2094.021
591.121	2089.515
591.249	2087.876
591.377	2085.784
591.505	2090.814
591.633	2084.371
591.762	2115.536
591.890	2112.588
592.018	2101.897
592.146	2099.052
592.274	2117.103
592.402	2107.722
592.530	2116.670
592.658	2112.887
592.787	2121.103
592.915	2125.000
593.043	2121.072
593.171	2117.887
593.299	2145.639
593.427	2136.794
593.555	2149.000
593.683	2129.237
593.812	2146.000
593.940	2161.928
594.068	2171.845
594.196	2167.495
594.324	2172.392
594.452	2195.866
594.580	2183.722
594.708	2188.845
594.837	2198.959
594.965	2199.680
595.093	2199.402
595.221	2198.423
595.349	2212.907
595.477	2223.309
595.605	2211.784
595.733	2245.784
595.862	2233.381
595.990	2230.608
596.118	2243.557
596.246	2259.670
596.374	2251.289
596.502	2264.598
596.630	2282.577
596.758	2263.608
596.887	2278.320
597.015	2289.536
597.143	2251.010
597.271	2275.206
597.399	2282.557
597.527	2298.392
597.655	2281.299
597.783	2283.216
597.912	2290.474
598.040	2278.485
598.168	2289.464
598.296	2286.237
598.424	2289.918
598.552	2296.464
598.680	2286.155
598.808	2291.474
598.937	2315.526
599.065	2290.412
599.193	2295.835
599.321	2280.773
599.449	2294.144
599.577	2290.711
599.705	2289.474
599.833	2293.485
599.962	2297.258
600.090	2297.495
600.218	2302.381
600.346	2314.247
600.474	2305.320
600.602	2304.536
600.730	2313.928
600.858	2318.639
600.987	2308.907
601.115	2314.278
601.243	2300.711
601.371	2331.186
601.499	2345.258
601.627	2331.392
601.755	2335.938
601.883	2349.196
602.012	2366.124
602.140	2343.649
602.268	2356.155
602.396	2372.515
602.524	2377.515
602.652	2397.608
602.780	2383.134
602.908	2398.216
603.037	2406.649
603.165	2422.072
603.293	2437.711
603.421	2428.021
603.549	2432.340
603.677	2464.216
603.805	2450.041
603.933	2469.237
604.062	2478.753
604.190	2493.041
604.318	2479.773
604.446	2512.763
604.574	2489.866
604.702	2511.722
604.830	2512.165
604.958	2527.825
605.087	2553.134
605.215	2547.351
605.343	2543.866
605.471	2556.691
605.599	2557.268
605.727	2558.670
605.855	2572.649
605.983	2577.062
606.112	2580.361
606.240	2602.247
606.368	2601.247
606.496	2672.629
606.624	2578.814
606.752	2625.845
606.880	2694.701
607.008	2755.268
607.137	2701.330
607.265	2612.206
607.393	2651.010
607.521	2707.845
607.649	2629.464
607.777	2645.155
607.905	2669.979
608.033	2678.082
608.162	2635.361
608.290	2693.227
608.418	2661.031
608.546	2677.454
608.674	2700.155
608.802	2664.691
608.930	2663.041
609.058	2663.093
609.187	2694.175
609.315	2695.072
609.443	2656.897
609.571	2733.216
609.699	2651.041
609.827	2696.402
609.955	2730.196
610.083	2653.629
610.212	2660.732
610.340	2675.639
610.468	2732.165
610.596	2712.866
610.724	2716.433
610.852	2699.557
610.980	2719.845
611.108	2737.289
611.237	2689.454
611.365	2703.237
611.493	2691.763
611.621	2703.907
611.749	2705.608
611.877	2724.072
612.005	2732.763
612.133	2750.557
612.262	2733.495
612.390	2757.773
612.518	2787.155
612.646	2842.691
612.774	2771.402
612.902	2782.227
613.030	2742.206
613.158	2847.608
613.287	2826.753
613.415	2782.825
613.543	2784.948
613.671	2813.340
613.799	2833.990
613.927	2853.897
614.055	2831.423
614.183	2920.629
614.312	2830.722
614.440	2970.691
614.568	2880.351
614.696	2862.680
614.824	2998.505
614.952	2918.835
615.080	2885.660
615.208	2927.433
615.337	2971.856
615.465	2940.670
615.593	2941.289
615.721	2975.052
615.849	2988.670
615.977	2952.990
616.105	3017.423
616.233	2955.351
616.362	3023.990
616.490	2959.938
616.618	2967.753
616.746	3067.629
616.874	3055.247
617.002	3020.227
617.130	3046.186
617.258	3105.856
617.387	3041.443
617.515	3004.258
617.643	3015.062
617.771	3089.361
617.899	3072.639
618.027	3046.247
618.155	3122.742
618.283	3042.155
618.412	3046.773
618.540	3159.567
618.668	3093.897
618.796	3087.979
618.924	3154.175
619.052	3105.000
619.180	3081.320
619.308	3100.155
619.437	3126.423
619.565	3119.598
619.693	3101.237
619.821	3135.608
619.949	3109.794
620.077	3164.835
620.205	3179.082
620.333	3173.845
620.462	3169.021
620.590	3210.649
620.718	3145.742
620.846	3217.938
620.974	3210.825
621.102	3218.443
621.230	3174.371
621.358	3307.443
621.487	3167.979
621.615	3216.608
621.743	3200.577
621.871	3233.402
621.999	3252.165
622.127	3216.464
622.255	3226.402
622.383	3220.186
622.512	3206.887
622.640	3318.711
622.768	3202.072
622.896	3269.691
623.024	3242.979
623.152	3297.515
623.280	3276.835
623.408	3226.598
623.537	3254.918
623.665	3219.464
623.793	3304.165
623.921	3251.505
624.049	3238.000
624.177	3259.412
624.305	3285.381
624.433	3282.598
624.562	3289.454
624.690	3342.835
624.818	3310.258
624.946	3418.959
625.074	3306.165
625.202	3264.856
625.330	3270.392
625.458	3370.722
625.587	3304.113
625.715	3361.753
625.843	3401.320
625.971	3320.464
626.099	3312.753
626.227	3330.948
626.355	3305.732
626.483	3428.155
626.612	3314.144
626.740	3325.722
626.868	3334.474
626.996	3344.392
627.124	3349.753
627.252	3305.701
627.380	3348.351
627.508	3351.938
627.637	3363.206
627.765	3383.031
627.893	3386.351
628.021	3388.351
628.149	3378.093
628.277	3417.464
628.405	3430.175
628.533	3388.711
628.662	3448.536
628.790	3435.392
628.918	3411.443
629.046	3474.732
629.174	3420.722
629.302	3510.443
629.430	3413.010
629.558	3475.505
629.687	3453.907
629.815	3471.691
629.943	3528.443
630.071	3494.351
630.199	3507.897
630.327	3518.402
630.455	3466.062
630.583	3550.351
630.712	3537.423
630.840	3534.876
630.968	3560.268
631.096	3510.784
631.224	3519.175
631.352	3582.330
631.480	3572.515
631.608	3602.237
631.737	3625.196
631.865	3736.495
631.993	3585.000
632.121	3699.784
632.249	3638.186
632.377	3643.340
632.505	3614.515
632.633	3580.670
632.762	3632.825
632.890	3689.021
633.018	3607.010
633.146	3631.887
633.274	3652.485
633.402	3661.320
633.530	3604.814
633.658	3718.897
633.787	3590.505
633.915	3688.000
634.043	3640.268
634.171	3650.866
634.299	3658.464
634.427	3689.454
634.555	3760.031
634.683	3648.918
634.812	3654.515
634.940	3657.928
635.068	3642.082
635.196	3650.845
635.324	3641.887
635.452	3706.021
635.580	3661.773
635.708	3636.526
635.837	3681.165
635.965	3656.784
636.093	3664.258
636.221	3630.309
636.349	3677.505
636.477	3609.588
636.605	3758.845
636.733	3620.505
636.862	3614.392
636.990	3669.588
637.118	3700.196
637.246	3657.948
637.374	3688.237
637.502	3631.289
637.630	3594.814
637.758	3634.000
637.887	3578.392
638.015	3658.361
638.143	3615.062
638.271	3626.072
638.399	3620.546
638.527	3600.495
638.655	3603.959
638.783	3721.082
638.912	3653.608
639.040	3637.113
639.168	3657.794
639.296	3606.258
639.424	3731.330
639.552	3602.536
639.680	3608.237
639.808	3660.041
639.937	3584.474
640.065	3595.010
640.193	3675.196
640.321	3618.072
640.449	3676.814
640.577	3685.227
640.705	3615.216
640.833	3742.918
640.962	3649.907
641.090	3605.443
641.218	3607.619
641.346	3662.402
641.474	3670.577
641.602	3644.309
641.730	3645.196
641.858	3632.887
641.987	3659.845
642.115	3702.918
642.243	3707.093
642.371	3711.887
642.499	3688.289
642.627	3697.567
642.755	3707.825
642.883	3737.701
643.012	3679.938
643.140	3668.505
643.268	3725.629
643.396	3705.887
643.524	3782.443
643.652	3723.887
643.780	3718.268
643.908	3695.464
644.037	3841.835
644.165	3751.722
644.293	3783.320
644.421	3689.845
644.549	3790.804
644.677	3752.278
644.805	3781.186
644.933	3722.959
645.062	3738.134
645.190	3783.361
645.318	3842.103
645.446	3758.134
645.574	3759.701
645.702	3772.443
645.830	3902.856
645.958	3739.412
646.087	3883.856
646.215	3749.474
646.343	3869.412
646.471	3847.990
646.599	3804.918
646.727	3769.969
646.855	3774.309
646.983	3799.299
647.112	3761.753
647.240	3874.381
647.368	3794.588
647.496	3787.423
647.624	3724.835
647.752	3730.526
647.880	3751.423
648.008	3737.732
648.137	3758.227
648.265	3722.680
648.393	3763.330
648.521	3733.969
648.649	3780.588
648.777	3759.887
648.905	3703.639
649.033	3751.897
649.162	3730.608
649.290	3691.835
649.418	3770.010
649.546	3796.835
649.674	3767.103
649.802	3715.206
649.930	3807.557
650.058	3640.845
650.187	3728.969
650.315	3683.371
650.443	3733.732
650.571	3697.515
650.699	3664.093
650.827	3644.402
650.955	3691.722
651.083	3704.381
651.212	3701.660
651.340	3736.856
651.468	3677.433
651.596	3689.289
651.724	3666.351
651.852	3659.515
651.980	3631.763
652.108	3708.155
652.237	3672.474
652.365	3715.206
652.493	3602.763
652.621	3632.021
652.749	3695.216
652.877	3593.948
653.005	3662.433
653.133	3617.381
653.262	3648.062
653.390	3587.454
653.518	3730.722
653.646	3604.237
653.774	3735.392
653.902	3649.536
654.030	3579.711
654.158	3592.866
654.287	3596.577
654.415	3620.866
654.543	3571.155
654.671	3611.010
654.799	3584.526
654.927	3554.918
655.055	3547.619
655.183	3582.278
655.312	3549.216
655.440	3565.732
655.568	3526.330
655.696	3630.887
655.824	3608.639
655.952	3536.804
656.080	3501.134
656.208	3635.722
656.337	3546.515
656.465	3590.062
656.593	3556.505
656.721	3554.206
656.849	3612.505
656.977	3498.948
657.105	3534.134
657.233	3488.835
657.362	3527.536
657.490	3495.979
657.618	3510.948
657.746	3492.619
657.874	3468.454
658.002	3437.619
658.130	3472.433
658.258	3462.237
658.387	3476.474
658.515	3437.093
658.643	3470.598
658.771	3466.021
658.899	3424.392
659.027	3435.691
659.155	3420.000
659.283	3563.608
659.412	3425.351
659.540	3496.433
659.668	3407.619
659.796	3457.392
659.924	3469.175
660.052	3440.299
660.180	3391.103
660.308	3409.629
660.437	3403.876
660.565	3383.062
660.693	3378.289
660.821	3428.299
660.949	3350.320
661.077	3371.722
661.205	3427.196
661.333	3336.557
661.462	3418.361
661.590	3409.278
661.718	3470.474
661.846	3412.412
661.974	3474.237
662.102	3375.082
662.230	3417.010
662.358	3355.649
662.487	3363.722
662.615	3336.072
662.743	3346.887
662.871	3332.804
662.999	3314.701
663.127	3315.258
663.255	3394.629
663.383	3428.474
663.512	3311.103
663.640	3341.577
663.768	3320.113
663.896	3320.804
664.024	3368.474
664.152	3302.031
664.280	3373.247
664.408	3298.670
664.537	3326.227
664.665	3263.948
664.793	3268.361
664.921	3270.227
665.049	3309.856
665.177	3280.216
665.305	3297.691
665.433	3297.340
665.562	3321.402
665.690	3315.361
665.818	3455.753
665.946	3272.918
666.074	3251.186
666.202	3276.454
666.330	3288.186
666.458	3282.938
666.587	3224.289
666.715	3259.165
666.843	3242.784
666.971	3226.979
667.099	3285.814
667.227	3270.124
667.355	3297.278
667.483	3237.598
667.612	3247.722
667.740	3275.866
667.868	3293.258
667.996	3224.979
668.124	3237.794
668.252	3275.175
668.380	3207.629
668.508	3241.072
668.637	3218.608
668.765	3211.928
668.893	3265.526
669.021	3166.804
669.149	3264.361
669.277	3235.412
669.405	3227.412
669.533	3194.691
669.662	3348.691
669.790	3194.206
669.918	3255.052
670.046	3219.825
670.174	3230.505
670.302	3210.216
670.430	3151.144
670.558	3225.804
670.687	3198.237
670.815	3237.711
670.943	3142.753
671.071	3146.443
671.199	3144.113
671.327	3106.804
671.455	3114.010
671.583	3112.340
671.712	3195.845
671.840	3116.763
671.968	3129.670
672.096	3139.711
672.224	3056.258
672.352	3176.175
672.480	3059.041
672.608	3061.876
672.737	3026.701
672.865	3149.485
672.993	3055.588
673.121	3005.649
673.249	2999.969
673.377	2988.443
673.505	2990.392
673.633	3001.412
673.762	2953.680
673.890	2958.227
674.018	3116.742
674.146	2967.093
674.274	2962.165
674.402	3092.474
674.530	2947.515
674.658	2936.814
674.787	2911.835
674.915	2954.278
675.043	2931.371
675.171	2944.371
675.299	2876.278
675.427	2899.619
675.555	2858.918
675.683	2859.619
675.812	2861.753
675.940	2863.866
676.068	2844.072
676.196	2846.144
676.324	2845.763
676.452	2830.588
676.580	2804.814
676.708	2829.804
676.837	2854.990
676.965	2855.825
677.093	2839.546
677.221	2794.649
677.349	2813.897
677.477	2851.845
677.605	2791.990
677.733	2816.825
677.862	2744.619
677.990	2745.546
678.118	2749.402
678.246	2747.804
678.374	2758.649
678.502	2722.186
678.630	2696.340
678.758	2694.320
678.887	2772.103
679.015	2695.381
679.143	2698.753
679.271	2683.969
679.399	2697.196
679.527	2706.515
679.655	2692.227
679.783	2691.278
679.912	2689.577
680.040	2706.474
680.168	2664.495
680.296	2680.773
680.424	2630.866
680.552	2663.660
680.680	2688.959
680.808	2624.794
680.937	2626.907
681.065	2632.711
681.193	2632.175
681.321	2617.598
681.449	2613.990
681.577	2629.165
681.705	2628.557
681.833	2603.278
681.962	2592.649
682.090	2689.938
682.218	2588.010
682.346	2592.825
682.474	2605.351
682.602	2593.412
682.730	2608.546
682.858	2569.464
682.987	2594.866
683.115	2566.804
683.243	2585.289
683.371	2562.340
683.499	2544.381
683.627	2587.887
683.755	2591.443
683.883	2609.515
684.012	2551.433
684.140	2539.794
684.268	2546.454
684.396	2561.536
684.524	2553.412
684.652	2583.691
684.780	2574.918
684.908	2565.557
685.037	2540.814
685.165	2528.897
685.293	2542.072
685.421	2566.660
685.549	2530.289
685.677	2525.979
685.805	2557.948
685.933	2539.155
686.062	2522.918
686.190	2517.598
686.318	2530.041
686.446	2501.402
686.574	2508.443
686.702	2547.753
686.830	2512.052
686.958	2497.485
687.087	2519.227
687.215	2504.732
687.343	2481.351
687.471	2499.381
687.599	2481.186
687.727	2506.052
687.855	2479.629
687.983	2494.258
688.112	2501.402
688.240	2458.474
688.368	2471.598
688.496	2465.371
688.624	2478.619
688.752	2448.165
688.880	2458.072
689.008	2443.155
689.137	2453.392
689.265	2440.701
689.393	2419.959
689.521	2422.979
689.649	2425.144
689.777	2411.381
689.905	2415.278
690.033	2418.608
690.162	2406.979
690.290	2389.959
690.418	2394.691
690.546	2404.598
690.674	2400.330
690.802	2382.887
690.930	2372.021
691.058	2369.052
691.187	2331.526
691.315	2370.186
691.443	2363.639
691.571	2361.557
691.699	2331.897
691.827	2340.062
691.955	2345.691
692.083	2323.907
692.212	2311.928
692.340	2302.433
692.468	2312.546
692.596	2290.526
692.724	2290.309
692.852	2274.577
692.980	2282.959
693.108	2267.784
693.237	2272.258
693.365	2255.000
693.493	2258.918
693.621	2244.237
693.749	2246.701
693.877	2233.289
694.005	2232.155
694.133	2239.381
694.262	2222.320
694.390	2218.887
694.518	2192.536
694.646	2200.485
694.774	2205.495
694.902	2186.515
695.030	2210.629
695.158	2183.969
695.287	2170.165
695.415	2167.423
695.543	2167.041
695.671	2162.856
695.799	2144.979
695.927	2144.309
696.055	2142.526
696.183	2164.237
696.312	2136.505
696.440	2114.227
696.568	2127.381
696.696	2114.897
696.824	2105.969
696.952	2104.722
697.080	2087.052
697.208	2107.866
697.337	2092.876
697.465	2083.845
697.593	2095.268
697.721	2077.247
697.849	2075.113
697.977	2082.753
698.105	2091.381
698.233	2070.021
698.362	2044.629
698.490	2062.041
698.618	2050.330
698.746	2038.701
698.874	2039.258
699.002	2035.412
699.130	2030.278
699.258	2025.546
699.387	2012.186
699.515	2002.856
699.643	2018.588
699.771	1996.876
699.899	1999.165
700.027	1978.876
700.155	2000.567
700.283	1993.000
700.412	1982.588
700.540	1974.691
700.668	1962.423
700.796	1970.031
700.924	1941.649
701.052	1940.887
701.180	1939.897
701.308	1943.021
701.437	1920.608
701.565	1918.948
701.693	1911.495
701.821	1916.402
701.949	1914.412
702.077	1897.784
702.205	1887.206
702.333	1884.485
702.462	1877.505
702.590	1878.381
702.718	1875.351
702.846	1851.876
702.974	1862.144
703.102	1861.021
703.230	1836.041
703.358	1838.742
703.487	1816.887
703.615	1805.928
703.743	1808.402
703.871	1796.268
703.999	1788.309
704.127	1792.629
704.255	1772.732
704.383	1775.031
704.512	1764.443
704.640	1757.959
704.768	1748.887
704.896	1743.588
705.024	1746.546
705.152	1732.701
705.280	1726.309
705.408	1734.948
705.537	1723.495
705.665	1714.897
705.793	1692.866
705.921	1701.969
706.049	1693.423
706.177	1699.629
706.305	1681.330
706.433	1684.113
706.562	1663.990
706.690	1672.598
706.818	1657.794
706.946	1643.371
707.074	1646.918
707.202	1631.000
707.330	1619.515
707.458	1618.443
707.587	1608.010
707.715	1616.299
707.843	1592.784
707.971	1603.320
708.099	1590.588
708.227	1575.598
708.355	1589.928
708.483	1580.804
708.612	1576.330
708.740	1568.598
708.868	1560.515
708.996	1561.021
709.124	1553.392
709.252	1542.990
709.380	1537.546
709.508	1522.876
709.637	1520.443
709.765	1526.155
709.893	1510.588
710.021	1512.113
710.149	1506.124
710.277	1508.536
710.405	1507.773
710.533	1490.000
710.662	1489.918
710.790	1492.680
710.918	1483.433
711.046	1489.969
711.174	1484.113
711.302	1479.371
711.430	1456.505
711.558	1471.021
711.687	1466.577
711.815	1463.649
711.943	1458.124
712.071	1454.247
712.199	1439.423
712.327	1442.649
712.455	1435.443
712.583	1433.412
712.712	1424.021
712.840	1419.021
712.968	1412.649
713.096	1417.175
713.224	1414.464
713.352	1406.835
713.480	1402.392
713.608	1394.247
713.737	1389.320
713.865	1380.381
713.993	1388.495
714.121	1382.093
714.249	1379.412
714.377	1382.887
714.505	1375.938
714.633	1362.660
714.762	1360.134
714.890	1365.959
715.018	1345.515
715.146	1347.732
715.274	1336.629
715.402	1345.887
715.530	1352.464
715.658	1324.165
715.787	1338.072
715.915	1325.010
716.043	1323.907
716.171	1317.505
716.299	1325.959
716.427	1310.165
716.555	1311.103
716.683	1303.639
716.812	1299.505
716.940	1293.876
717.068	1292.412
717.196	1289.000
717.324	1278.526
717.452	1275.392
717.580	1271.052
717.708	1275.546
717.837	1265.309
717.965	1271.577
718.093	1264.010
718.221	1237.763
718.349	1236.144
718.477	1249.320
718.605	1231.763
718.733	1229.000
718.862	1222.165
718.990	1223.412
719.118	1215.103
719.246	1220.031
719.374	1206.175
719.502	1219.567
719.630	1203.113
719.758	1208.412
719.887	1187.454
720.015	1189.938
720.143	1173.495
720.271	1185.557
720.399	1175.052
720.527	1173.938
720.655	1167.196
720.783	1157.536
720.912	1154.897
721.040	1146.794
721.168	1146.268
721.296	1143.278
721.424	1142.918
721.552	1134.526
721.680	1126.175
721.808	1123.969
721.937	1112.021
722.065	1114.041
722.193	1102.691
722.321	1104.639
722.449	1095.557
722.577	1092.443
722.705	1087.897
722.833	1080.062
722.962	1075.691
723.090	1070.557
723.218	1065.299
723.346	1060.742
723.474	1049.887
723.602	1048.464
723.730	1041.309
723.858	1045.392
723.987	1037.814
724.115	1024.371
724.243	1028.464
724.371	1020.103
724.499	1022.320
724.627	1019.309
724.755	1011.361
724.883	1014.433
725.012	997.371
725.140	996.938
725.268	992.969
725.396	981.619
725.524	977.474
725.652	975.474
725.780	970.938
725.908	964.546
726.037	961.000
726.165	954.794
726.293	949.093
726.421	946.134
726.549	941.412
726.677	938.124
726.805	927.876
726.933	926.216
727.062	927.216
727.190	919.660
727.318	924.577
727.446	918.082
727.574	918.309
727.702	907.567
727.830	906.845
727.958	893.505
728.087	894.928
728.215	889.381
728.343	885.505
728.471	888.660
728.599	885.897
728.727	877.856
728.855	870.113
728.983	869.144
729.112	867.608
729.240	864.825
729.368	863.237
729.496	849.835
729.624	849.381
729.752	855.010
729.880	837.567
730.008	843.701
730.137	835.845
730.265	828.175
730.393	829.186
730.521	820.072
730.649	818.588
730.777	814.299
730.905	808.010
731.033	816.464
731.162	808.928
731.290	798.082
731.418	802.990
731.546	790.784
731.674	784.175
731.802	785.495
731.930	790.144
732.058	779.577
732.187	773.206
732.315	774.031
732.443	772.763
732.571	771.722
732.699	766.897
732.827	756.691
732.955	756.928
733.083	756.536
733.212	755.948
733.340	754.794
733.468	748.093
733.596	744.732
733.724	742.639
733.852	742.278
733.980	732.948
734.108	740.000
734.237	747.289
734.365	727.866
734.493	732.155
734.621	722.041
734.749	722.216
734.877	718.763
735.005	717.247
735.133	712.845
735.262	716.979
735.390	708.629
735.518	704.062
735.646	707.629
