sample10u_at_750.00nm_cut_at_1060.50Y_01.dat
19.06.2023
11:15:51
cut middle at Y: 1060.50
top cursor: 1109 down cursor: 1012 mean of: 97 lines , 2560 datapoints
wavelength(nm)	intensity[arb. units]
585.996	2031.155
586.124	1965.381
586.252	1964.289
586.380	1963.299
586.508	1962.835
586.637	1982.134
586.765	1986.371
586.893	1992.629
587.021	1999.351
587.149	1989.165
587.277	1995.928
587.405	2012.351
587.533	2002.536
587.662	2016.608
587.790	2022.464
587.918	2021.330
588.046	2034.649
588.174	2027.691
588.302	2034.443
588.430	2029.773
588.558	2037.227
588.687	2043.784
588.815	2072.165
588.943	2062.320
589.071	2062.041
589.199	2055.639
589.327	2069.361
589.455	2062.103
589.583	2073.474
589.712	2086.144
589.840	2083.371
589.968	2083.505
590.096	2088.227
590.224	2084.031
590.352	2097.866
590.480	2098.206
590.608	2109.742
590.737	2096.928
590.865	2111.103
590.993	2114.052
591.121	2111.835
591.249	2135.113
591.377	2121.814
591.505	2126.948
591.633	2131.402
591.762	2144.402
591.890	2158.021
592.018	2147.567
592.146	2146.113
592.274	2170.000
592.402	2155.464
592.530	2152.588
592.658	2162.619
592.787	2175.794
592.915	2185.196
593.043	2178.227
593.171	2193.649
593.299	2207.093
593.427	2196.186
593.555	2199.031
593.683	2197.247
593.812	2215.505
593.940	2226.031
594.068	2237.845
594.196	2248.392
594.324	2236.804
594.452	2264.515
594.580	2273.722
594.708	2279.959
594.837	2270.495
594.965	2292.392
595.093	2291.598
595.221	2290.124
595.349	2317.289
595.477	2300.186
595.605	2312.691
595.733	2349.876
595.862	2357.691
595.990	2319.371
596.118	2345.474
596.246	2379.969
596.374	2354.206
596.502	2368.052
596.630	2391.392
596.758	2381.835
596.887	2384.969
597.015	2393.031
597.143	2366.691
597.271	2392.670
597.399	2399.320
597.527	2414.165
597.655	2419.186
597.783	2412.206
597.912	2414.464
598.040	2425.969
598.168	2438.722
598.296	2408.784
598.424	2420.990
598.552	2441.928
598.680	2416.175
598.808	2433.887
598.937	2465.361
599.065	2449.701
599.193	2469.320
599.321	2448.402
599.449	2469.629
599.577	2456.845
599.705	2473.433
599.833	2466.464
599.962	2462.010
600.090	2479.536
600.218	2468.268
600.346	2512.515
600.474	2474.938
600.602	2480.515
600.730	2486.619
600.858	2495.134
600.987	2553.856
601.115	2522.144
601.243	2506.351
601.371	2521.495
601.499	2533.495
601.627	2545.546
601.755	2535.722
601.883	2572.175
602.012	2570.763
602.140	2563.763
602.268	2630.454
602.396	2578.876
602.524	2592.175
602.652	2612.825
602.780	2615.485
602.908	2625.340
603.037	2647.546
603.165	2638.082
603.293	2667.299
603.421	2668.247
603.549	2686.000
603.677	2712.340
603.805	2692.351
603.933	2715.742
604.062	2774.866
604.190	2729.918
604.318	2729.773
604.446	2748.773
604.574	2801.619
604.702	2796.443
604.830	2789.598
604.958	2821.392
605.087	2842.144
605.215	2865.763
605.343	2855.732
605.471	2883.794
605.599	2873.000
605.727	2878.196
605.855	2895.330
605.983	2909.392
606.112	2898.474
606.240	2924.454
606.368	2926.505
606.496	3048.567
606.624	2953.474
606.752	2967.753
606.880	3091.835
607.008	3133.351
607.137	3091.299
607.265	2980.711
607.393	3008.897
607.521	3112.309
607.649	3005.443
607.777	3033.629
607.905	3072.948
608.033	3075.866
608.162	3043.320
608.290	3085.794
608.418	3091.722
608.546	3127.794
608.674	3130.722
608.802	3077.443
608.930	3086.340
609.058	3083.804
609.187	3112.155
609.315	3140.505
609.443	3094.495
609.571	3202.402
609.699	3094.722
609.827	3145.979
609.955	3154.742
610.083	3114.392
610.212	3138.959
610.340	3130.381
610.468	3216.144
610.596	3192.196
610.724	3201.546
610.852	3179.113
610.980	3203.711
611.108	3237.144
611.237	3158.753
611.365	3199.938
611.493	3175.763
611.621	3209.722
611.749	3212.072
611.877	3261.845
612.005	3233.629
612.133	3287.227
612.262	3252.093
612.390	3274.454
612.518	3324.546
612.646	3360.196
612.774	3307.567
612.902	3320.433
613.030	3312.155
613.158	3404.361
613.287	3390.196
613.415	3363.196
613.543	3368.103
613.671	3378.175
613.799	3426.918
613.927	3449.742
614.055	3424.103
614.183	3519.381
614.312	3439.412
614.440	3595.639
614.568	3483.845
614.696	3508.402
614.824	3597.928
614.952	3551.907
615.080	3507.113
615.208	3575.268
615.337	3581.330
615.465	3570.887
615.593	3586.309
615.721	3630.876
615.849	3636.454
615.977	3644.969
616.105	3682.825
616.233	3621.072
616.362	3721.402
616.490	3669.546
616.618	3659.845
616.746	3766.381
616.874	3750.546
617.002	3735.495
617.130	3762.000
617.258	3830.784
617.387	3734.990
617.515	3724.536
617.643	3759.423
617.771	3812.670
617.899	3790.938
618.027	3786.021
618.155	3861.577
618.283	3792.175
618.412	3810.907
618.540	3907.268
618.668	3842.711
618.796	3842.856
618.924	3908.113
619.052	3887.546
619.180	3858.392
619.308	3885.247
619.437	3909.536
619.565	3905.670
619.693	3902.134
619.821	3928.216
619.949	3904.732
620.077	3956.907
620.205	3974.155
620.333	3975.567
620.462	3995.000
620.590	4031.722
620.718	3988.247
620.846	4065.567
620.974	4058.000
621.102	4046.464
621.230	4015.495
621.358	4150.928
621.487	4035.711
621.615	4050.557
621.743	4057.928
621.871	4090.660
621.999	4117.557
622.127	4105.526
622.255	4090.732
622.383	4081.979
622.512	4098.887
622.640	4187.577
622.768	4096.113
622.896	4154.691
623.024	4142.443
623.152	4203.598
623.280	4213.320
623.408	4127.979
623.537	4174.093
623.665	4135.773
623.793	4222.959
623.921	4169.660
624.049	4161.557
624.177	4164.474
624.305	4212.433
624.433	4221.773
624.562	4210.371
624.690	4271.124
624.818	4226.196
624.946	4359.588
625.074	4267.010
625.202	4201.536
625.330	4235.608
625.458	4314.155
625.587	4254.392
625.715	4304.629
625.843	4359.969
625.971	4313.619
626.099	4287.515
626.227	4301.619
626.355	4264.526
626.483	4375.948
626.612	4273.247
626.740	4292.237
626.868	4331.948
626.996	4315.629
627.124	4329.082
627.252	4302.237
627.380	4361.340
627.508	4330.361
627.637	4336.289
627.765	4372.639
627.893	4366.474
628.021	4386.268
628.149	4337.825
628.277	4418.660
628.405	4410.990
628.533	4376.134
628.662	4427.309
628.790	4414.773
628.918	4404.670
629.046	4461.763
629.174	4410.866
629.302	4519.124
629.430	4410.021
629.558	4482.588
629.687	4426.742
629.815	4478.546
629.943	4553.412
630.071	4486.979
630.199	4502.773
630.327	4495.010
630.455	4498.330
630.583	4551.155
630.712	4544.031
630.840	4549.124
630.968	4552.278
631.096	4510.701
631.224	4541.299
631.352	4576.299
631.480	4581.103
631.608	4621.371
631.737	4627.876
631.865	4734.412
631.993	4596.691
632.121	4698.330
632.249	4664.753
632.377	4633.155
632.505	4623.546
632.633	4580.485
632.762	4637.608
632.890	4699.258
633.018	4614.474
633.146	4667.330
633.274	4648.227
633.402	4653.278
633.530	4616.206
633.658	4724.763
633.787	4595.124
633.915	4684.031
634.043	4634.320
634.171	4631.144
634.299	4653.763
634.427	4705.814
634.555	4737.186
634.683	4653.711
634.812	4651.866
634.940	4631.268
635.068	4593.206
635.196	4619.825
635.324	4602.639
635.452	4675.763
635.580	4633.340
635.708	4576.278
635.837	4649.701
635.965	4613.619
636.093	4597.072
636.221	4572.021
636.349	4610.505
636.477	4526.825
636.605	4684.021
636.733	4511.526
636.862	4526.268
636.990	4575.402
637.118	4592.536
637.246	4546.577
637.374	4586.227
637.502	4518.639
637.630	4480.464
637.758	4531.052
637.887	4467.010
638.015	4530.918
638.143	4488.433
638.271	4483.969
638.399	4489.041
638.527	4451.711
638.655	4436.742
638.783	4558.144
638.912	4493.856
639.040	4456.887
639.168	4493.856
639.296	4439.794
639.424	4540.753
639.552	4399.062
639.680	4447.330
639.808	4448.237
639.937	4400.887
640.065	4385.371
640.193	4470.000
640.321	4401.103
640.449	4460.412
640.577	4463.948
640.705	4405.402
640.833	4463.763
640.962	4394.526
641.090	4364.608
641.218	4380.598
641.346	4403.278
641.474	4412.876
641.602	4364.794
641.730	4356.186
641.858	4345.701
641.987	4372.392
642.115	4395.361
642.243	4378.361
642.371	4408.216
642.499	4367.680
642.627	4383.938
642.755	4392.423
642.883	4403.577
643.012	4357.918
643.140	4342.381
643.268	4368.969
643.396	4339.526
643.524	4415.320
643.652	4390.753
643.780	4342.021
643.908	4313.608
644.037	4436.948
644.165	4345.567
644.293	4377.856
644.421	4292.443
644.549	4381.649
644.677	4337.227
644.805	4348.412
644.933	4312.093
645.062	4323.000
645.190	4349.320
645.318	4359.227
645.446	4289.588
645.574	4296.031
645.702	4294.918
645.830	4402.206
645.958	4252.330
646.087	4392.887
646.215	4235.742
646.343	4350.371
646.471	4352.082
646.599	4287.062
646.727	4225.876
646.855	4218.402
646.983	4223.804
647.112	4204.330
647.240	4296.979
647.368	4225.278
647.496	4211.289
647.624	4156.433
647.752	4122.598
647.880	4127.392
648.008	4138.629
648.137	4119.897
648.265	4066.433
648.393	4120.155
648.521	4098.567
648.649	4108.515
648.777	4085.722
648.905	4032.485
649.033	4092.485
649.162	4041.062
649.290	4007.175
649.418	4035.052
649.546	4062.845
649.674	4036.526
649.802	3977.649
649.930	4065.608
650.058	3912.515
650.187	3966.876
650.315	3894.948
650.443	3968.845
650.571	3910.010
650.699	3879.753
650.827	3864.412
650.955	3880.546
651.083	3880.567
651.212	3868.093
651.340	3898.247
651.468	3835.093
651.596	3831.206
651.724	3812.052
651.852	3803.423
651.980	3766.577
652.108	3851.485
652.237	3790.309
652.365	3815.289
652.493	3733.711
652.621	3700.268
652.749	3780.474
652.877	3693.031
653.005	3726.804
653.133	3650.010
653.262	3696.753
653.390	3627.165
653.518	3766.979
653.646	3645.928
653.774	3759.680
653.902	3654.309
654.030	3595.907
654.158	3592.093
654.287	3587.381
654.415	3591.649
654.543	3585.701
654.671	3589.732
654.799	3550.361
654.927	3497.598
655.055	3494.227
655.183	3509.948
655.312	3484.505
655.440	3484.887
655.568	3457.897
655.696	3523.495
655.824	3516.990
655.952	3436.660
656.080	3404.216
656.208	3512.247
656.337	3436.165
656.465	3479.639
656.593	3419.433
656.721	3397.216
656.849	3449.351
656.977	3347.526
657.105	3346.701
657.233	3315.072
657.362	3343.814
657.490	3316.381
657.618	3311.351
657.746	3305.629
657.874	3271.918
658.002	3267.732
658.130	3260.763
658.258	3244.412
658.387	3241.041
658.515	3215.340
658.643	3221.113
658.771	3211.278
658.899	3205.680
659.027	3165.454
659.155	3173.608
659.283	3293.309
659.412	3151.454
659.540	3215.784
659.668	3148.361
659.796	3152.629
659.924	3142.979
660.052	3133.010
660.180	3089.680
660.308	3095.680
660.437	3089.289
660.565	3048.784
660.693	3039.804
660.821	3070.186
660.949	3022.082
661.077	3032.660
661.205	3068.041
661.333	2975.876
661.462	3041.536
661.590	3028.505
661.718	3102.093
661.846	3044.082
661.974	3092.866
662.102	2971.598
662.230	2998.206
662.358	2921.186
662.487	2943.000
662.615	2903.072
662.743	2899.567
662.871	2910.928
662.999	2861.557
663.127	2877.845
663.255	2953.773
663.383	2969.979
663.512	2839.515
663.640	2868.629
663.768	2858.732
663.896	2805.680
664.024	2896.691
664.152	2810.186
664.280	2879.845
664.408	2822.619
664.537	2823.804
664.665	2766.206
664.793	2751.258
664.921	2736.464
665.049	2770.691
665.177	2752.546
665.305	2769.598
665.433	2764.216
665.562	2760.474
665.690	2733.856
665.818	2871.742
665.946	2723.309
666.074	2705.113
666.202	2683.866
666.330	2719.608
666.458	2694.691
666.587	2637.639
666.715	2676.773
666.843	2641.124
666.971	2631.021
667.099	2661.567
667.227	2633.670
667.355	2666.330
667.483	2618.814
667.612	2622.381
667.740	2643.670
667.868	2646.588
667.996	2600.186
668.124	2596.711
668.252	2585.196
668.380	2576.144
668.508	2579.773
668.637	2567.433
668.765	2547.144
668.893	2570.887
669.021	2543.361
669.149	2568.351
669.277	2532.670
669.405	2528.619
669.533	2535.876
669.662	2577.814
669.790	2495.443
669.918	2528.258
670.046	2486.412
670.174	2512.897
670.302	2492.814
670.430	2462.340
670.558	2455.082
670.687	2447.021
670.815	2460.742
670.943	2430.959
671.071	2429.144
671.199	2415.732
671.327	2407.340
671.455	2406.000
671.583	2401.464
671.712	2392.763
671.840	2375.361
671.968	2349.175
672.096	2353.773
672.224	2345.887
672.352	2339.103
672.480	2334.237
672.608	2310.485
672.737	2307.464
672.865	2297.021
672.993	2285.454
673.121	2277.577
673.249	2274.227
673.377	2262.763
673.505	2256.794
673.633	2245.835
673.762	2241.196
673.890	2239.010
674.018	2210.897
674.146	2192.155
674.274	2216.340
674.402	2192.340
674.530	2174.320
674.658	2178.216
674.787	2157.186
674.915	2144.041
675.043	2145.216
675.171	2146.175
675.299	2125.835
675.427	2129.340
675.555	2109.485
675.683	2100.856
675.812	2083.062
675.940	2076.825
676.068	2066.938
676.196	2051.165
676.324	2066.237
676.452	2036.588
676.580	2042.536
676.708	2027.381
676.837	2045.835
676.965	2005.093
677.093	2011.165
677.221	1987.938
677.349	1976.969
677.477	1977.969
677.605	1962.938
677.733	1955.649
677.862	1957.598
677.990	1962.887
678.118	1940.124
678.246	1917.474
678.374	1921.567
678.502	1904.979
678.630	1903.165
678.758	1897.928
678.887	1907.041
679.015	1896.784
679.143	1890.423
679.271	1890.103
679.399	1851.505
679.527	1854.691
679.655	1860.866
679.783	1847.835
679.912	1838.402
680.040	1835.557
680.168	1832.979
680.296	1812.289
680.424	1822.856
680.552	1802.856
680.680	1810.351
680.808	1787.773
680.937	1788.897
681.065	1796.711
681.193	1773.124
681.321	1786.113
681.449	1772.072
681.577	1756.907
681.705	1738.186
681.833	1745.619
681.962	1737.371
682.090	1747.742
682.218	1742.773
682.346	1732.392
682.474	1735.031
682.602	1717.691
682.730	1702.948
682.858	1693.361
682.987	1717.784
683.115	1685.371
683.243	1686.515
683.371	1694.103
683.499	1670.742
683.627	1694.268
683.755	1658.299
683.883	1665.649
684.012	1652.196
684.140	1651.711
684.268	1651.247
684.396	1652.505
684.524	1644.979
684.652	1654.897
684.780	1644.361
684.908	1639.216
685.037	1628.433
685.165	1627.515
685.293	1623.010
685.421	1621.309
685.549	1608.196
685.677	1609.454
685.805	1604.887
685.933	1599.412
686.062	1592.856
686.190	1589.928
686.318	1603.351
686.446	1586.175
686.574	1588.969
686.702	1592.753
686.830	1590.598
686.958	1575.454
687.087	1577.227
687.215	1557.402
687.343	1551.062
687.471	1560.990
687.599	1541.670
687.727	1543.423
687.855	1540.062
687.983	1536.608
688.112	1541.072
688.240	1522.959
688.368	1525.897
688.496	1520.093
688.624	1516.000
688.752	1506.443
688.880	1495.938
689.008	1498.691
689.137	1495.948
689.265	1485.588
689.393	1482.794
689.521	1480.845
689.649	1478.546
689.777	1459.381
689.905	1457.299
690.033	1465.031
690.162	1454.144
690.290	1443.072
690.418	1439.330
690.546	1442.464
690.674	1435.825
690.802	1431.237
690.930	1414.557
691.058	1408.732
691.187	1406.227
691.315	1413.773
691.443	1403.732
691.571	1390.639
691.699	1385.701
691.827	1388.196
691.955	1386.155
692.083	1377.258
692.212	1368.227
692.340	1367.969
692.468	1357.186
692.596	1354.031
692.724	1356.948
692.852	1338.474
692.980	1344.113
693.108	1326.897
693.237	1323.629
693.365	1334.660
693.493	1311.113
693.621	1311.062
693.749	1312.216
693.877	1296.155
694.005	1298.082
694.133	1304.144
694.262	1287.196
694.390	1285.856
694.518	1273.155
694.646	1268.309
694.774	1268.773
694.902	1255.753
695.030	1283.454
695.158	1257.206
695.287	1242.495
695.415	1242.969
695.543	1235.557
695.671	1239.887
695.799	1231.155
695.927	1229.309
696.055	1229.155
696.183	1239.959
696.312	1213.742
696.440	1215.412
696.568	1206.732
696.696	1196.907
696.824	1196.588
696.952	1205.897
697.080	1184.196
697.208	1194.546
697.337	1173.031
697.465	1177.175
697.593	1171.041
697.721	1173.052
697.849	1175.928
697.977	1166.907
698.105	1165.938
698.233	1158.258
698.362	1146.691
698.490	1149.660
698.618	1142.835
698.746	1139.351
698.874	1138.753
699.002	1129.598
699.130	1126.196
699.258	1134.804
699.387	1116.103
699.515	1114.031
699.643	1120.361
699.771	1104.701
699.899	1099.371
700.027	1094.124
700.155	1103.825
700.283	1103.969
700.412	1096.093
700.540	1081.505
700.668	1073.814
700.796	1083.392
700.924	1064.041
701.052	1063.392
701.180	1063.082
701.308	1060.577
701.437	1048.629
701.565	1045.876
701.693	1043.031
701.821	1046.835
701.949	1041.732
702.077	1021.887
702.205	1041.454
702.333	1020.577
702.462	1025.845
702.590	1018.804
702.718	1018.010
702.846	1004.680
702.974	1000.629
703.102	1000.268
703.230	990.196
703.358	990.392
703.487	987.732
703.615	977.773
703.743	968.876
703.871	966.371
703.999	964.794
704.127	953.557
704.255	954.969
704.383	950.825
704.512	948.876
704.640	947.629
704.768	932.649
704.896	937.825
705.024	925.495
705.152	925.804
705.280	925.443
705.408	922.412
705.537	921.608
705.665	915.474
705.793	910.784
705.921	900.227
706.049	908.629
706.177	902.299
706.305	902.289
706.433	892.567
706.562	877.825
706.690	871.454
706.818	872.536
706.946	875.134
707.074	870.423
707.202	854.103
707.330	855.052
707.458	857.165
707.587	842.928
707.715	859.010
707.843	848.588
707.971	839.144
708.099	835.959
708.227	830.608
708.355	837.918
708.483	824.577
708.612	825.361
708.740	822.155
708.868	821.402
708.996	815.711
709.124	807.639
709.252	813.093
709.380	804.876
709.508	800.577
709.637	801.928
709.765	793.495
709.893	794.175
710.021	788.320
710.149	788.443
710.277	784.454
710.405	775.196
710.533	779.938
710.662	771.897
710.790	781.794
710.918	773.856
711.046	771.670
711.174	765.247
711.302	761.340
711.430	759.464
711.558	762.464
711.687	754.546
711.815	758.278
711.943	752.299
712.071	752.505
712.199	745.876
712.327	740.711
712.455	740.845
712.583	737.062
712.712	740.784
712.840	733.216
712.968	723.567
713.096	728.722
713.224	725.289
713.352	723.866
713.480	722.309
713.608	721.206
713.737	719.856
713.865	708.804
713.993	712.082
714.121	705.041
714.249	705.443
714.377	708.062
714.505	712.680
714.633	696.351
714.762	692.619
714.890	695.938
715.018	696.464
715.146	688.866
715.274	686.258
715.402	680.495
715.530	691.330
715.658	676.763
715.787	682.062
715.915	682.031
716.043	675.825
716.171	672.474
716.299	682.206
716.427	676.216
716.555	667.041
716.683	658.742
716.812	659.835
716.940	664.959
717.068	655.093
717.196	656.155
717.324	655.588
717.452	648.990
717.580	650.969
717.708	645.959
717.837	650.134
717.965	640.278
718.093	644.773
718.221	638.918
718.349	633.526
718.477	639.093
718.605	626.784
718.733	635.175
718.862	627.072
718.990	620.711
719.118	622.072
719.246	620.320
719.374	615.660
719.502	623.237
719.630	609.866
719.758	620.784
719.887	608.629
720.015	602.701
720.143	607.598
720.271	606.794
720.399	604.711
720.527	601.113
720.655	594.392
720.783	592.443
720.912	598.804
721.040	592.588
721.168	580.443
721.296	584.433
721.424	583.907
721.552	579.206
721.680	571.320
721.808	575.515
721.937	575.526
722.065	568.928
722.193	564.505
722.321	562.485
722.449	563.825
722.577	559.041
722.705	555.536
722.833	552.278
722.962	554.557
723.090	549.979
723.218	544.186
723.346	545.144
723.474	538.526
723.602	536.629
723.730	536.505
723.858	537.897
723.987	540.423
724.115	536.072
724.243	534.804
724.371	524.660
724.499	529.412
724.627	518.825
724.755	518.711
724.883	525.804
725.012	519.041
725.140	511.474
725.268	516.134
725.396	509.722
725.524	509.907
725.652	501.814
725.780	501.856
725.908	502.351
726.037	498.763
726.165	499.433
726.293	494.814
726.421	493.918
726.549	493.464
726.677	488.423
726.805	488.237
726.933	483.072
727.062	480.897
727.190	474.990
727.318	480.876
727.446	480.443
727.574	480.289
727.702	471.402
727.830	477.052
727.958	471.536
728.087	472.526
728.215	464.979
728.343	470.505
728.471	467.876
728.599	455.835
728.727	461.268
728.855	461.670
728.983	455.371
729.112	449.144
729.240	454.103
729.368	450.979
729.496	451.825
729.624	447.216
729.752	447.990
729.880	445.268
730.008	447.804
730.137	442.144
730.265	440.392
730.393	437.072
730.521	437.619
730.649	427.216
730.777	434.763
730.905	434.155
731.033	435.206
731.162	431.474
731.290	431.309
731.418	429.196
731.546	423.237
731.674	428.041
731.802	421.856
731.930	425.299
732.058	424.247
732.187	420.897
732.315	422.567
732.443	421.722
732.571	411.175
732.699	420.062
732.827	413.794
732.955	413.887
733.083	412.103
733.212	405.701
733.340	408.608
733.468	407.165
733.596	409.299
733.724	402.485
733.852	398.247
733.980	399.979
734.108	398.423
734.237	396.320
734.365	395.969
734.493	397.845
734.621	391.557
734.749	398.722
734.877	392.876
735.005	390.711
735.133	390.474
735.262	391.907
735.390	386.515
735.518	384.206
735.646	383.660
735.774	383.814
735.902	380.897
736.030	380.010
736.158	379.938
736.287	376.969
736.415	376.227
736.543	379.103
736.671	367.825
736.799	377.897
736.927	374.082
737.055	370.227
