70_90_90_Pol_at_750.00nm_cut_at_1179.00Y_01.dat
03.07.2023
10:51:53
cut middle at Y: 1179.00
top cursor: 1231 down cursor: 1127 mean of: 104 lines , 2560 datapoints
wavelength(nm)	intensity[arb. units]
585.996	22530.010
586.124	21863.346
586.252	21825.048
586.380	21975.923
586.508	21996.087
586.637	22155.442
586.765	22143.490
586.893	22194.327
587.021	22203.077
587.149	22347.048
587.277	22281.779
587.405	22344.587
587.533	22362.010
587.662	22456.990
587.790	22349.721
587.918	22403.442
588.046	22315.192
588.174	22368.519
588.302	22325.154
588.430	22338.663
588.558	22332.769
588.687	22396.192
588.815	22318.837
588.943	22342.779
589.071	22386.500
589.199	22372.933
589.327	22369.558
589.455	22445.106
589.583	22326.404
589.712	22428.423
589.840	22356.192
589.968	22312.596
590.096	22440.317
590.224	22438.260
590.352	22490.644
590.480	22351.308
590.608	22427.846
590.737	22363.692
590.865	22440.740
590.993	22282.894
591.121	22408.990
591.249	22367.885
591.377	22354.183
591.505	22428.481
591.633	22292.308
591.762	22463.740
591.890	22394.337
592.018	22478.183
592.146	22448.077
592.274	22449.462
592.402	22434.990
592.530	22614.923
592.658	22491.317
592.787	22540.000
592.915	22459.019
593.043	22413.125
593.171	22462.010
593.299	22541.712
593.427	22554.913
593.555	22620.875
593.683	22585.212
593.812	22562.346
593.940	22622.894
594.068	22573.894
594.196	22701.702
594.324	22579.712
594.452	22845.644
594.580	22644.163
594.708	22730.221
594.837	22774.096
594.965	22898.260
595.093	22759.327
595.221	22979.087
595.349	22883.885
595.477	22837.683
595.605	22973.087
595.733	22922.404
595.862	22972.962
595.990	22955.010
596.118	22990.250
596.246	23111.298
596.374	23017.385
596.502	23011.423
596.630	23044.038
596.758	23043.875
596.887	23162.510
597.015	23031.990
597.143	23121.000
597.271	23076.519
597.399	23159.077
597.527	23062.442
597.655	23190.615
597.783	23134.856
597.912	23193.462
598.040	23171.106
598.168	23170.135
598.296	23088.115
598.424	23300.231
598.552	23169.885
598.680	23168.288
598.808	23223.558
598.937	23140.894
599.065	23212.135
599.193	23155.817
599.321	23246.087
599.449	23133.750
599.577	23123.663
599.705	23140.856
599.833	23158.231
599.962	23149.019
600.090	23188.067
600.218	23156.981
600.346	23145.625
600.474	23104.212
600.602	23063.356
600.730	23127.250
600.858	23157.904
600.987	23136.048
601.115	23126.067
601.243	23143.827
601.371	23199.798
601.499	23167.587
601.627	23224.635
601.755	23227.779
601.883	23279.692
602.012	23118.740
602.140	23153.510
602.268	23149.673
602.396	23326.298
602.524	23280.375
602.652	23361.538
602.780	23365.115
602.908	23377.702
603.037	23442.385
603.165	23444.317
603.293	23397.231
603.421	23439.606
603.549	23510.635
603.677	23499.029
603.805	23574.346
603.933	23601.231
604.062	23706.269
604.190	23738.356
604.318	23801.750
604.446	23748.788
604.574	23782.798
604.702	23847.202
604.830	23920.260
604.958	23891.106
605.087	23990.000
605.215	24079.510
605.343	24124.317
605.471	24059.163
605.599	24049.952
605.727	24153.962
605.855	24196.346
605.983	24238.442
606.112	24265.413
606.240	24265.644
606.368	24301.192
606.496	24260.490
606.624	24440.471
606.752	24348.923
606.880	24377.519
607.008	24451.452
607.137	24469.433
607.265	24473.913
607.393	24537.635
607.521	24575.712
607.649	24534.846
607.777	24424.990
607.905	24552.981
608.033	24545.058
608.162	24510.635
608.290	24557.385
608.418	24635.683
608.546	24617.087
608.674	24621.433
608.802	24571.010
608.930	24591.625
609.058	24593.058
609.187	24596.288
609.315	24608.596
609.443	24542.452
609.571	24660.423
609.699	24555.788
609.827	24684.365
609.955	24604.125
610.083	24558.192
610.212	24576.731
610.340	24550.115
610.468	24656.683
610.596	24583.837
610.724	24564.692
610.852	24661.269
610.980	24588.615
611.108	24571.721
611.237	24587.567
611.365	24602.125
611.493	24564.250
611.621	24580.971
611.749	24536.817
611.877	24624.837
612.005	24566.385
612.133	24654.240
612.262	24647.702
612.390	24696.721
612.518	24714.596
612.646	24715.567
612.774	24772.856
612.902	24696.413
613.030	24774.433
613.158	24771.548
613.287	24841.442
613.415	24757.288
613.543	24775.135
613.671	24800.827
613.799	24803.337
613.927	24839.779
614.055	24972.548
614.183	24963.788
614.312	25002.942
614.440	25022.788
614.568	25055.490
614.696	25070.221
614.824	25117.875
614.952	25086.481
615.080	25145.163
615.208	25245.962
615.337	25332.269
615.465	25271.115
615.593	25329.173
615.721	25244.010
615.849	25356.452
615.977	25402.125
616.105	25431.731
616.233	25455.029
616.362	25498.962
616.490	25407.692
616.618	25506.163
616.746	25631.288
616.874	25629.173
617.002	25616.346
617.130	25645.663
617.258	25590.663
617.387	25642.375
617.515	25664.538
617.643	25691.894
617.771	25742.202
617.899	25758.875
618.027	25816.413
618.155	25752.269
618.283	25813.558
618.412	25837.433
618.540	26006.779
618.668	25866.394
618.796	25905.615
618.924	25880.442
619.052	25895.356
619.180	25927.952
619.308	25911.260
619.437	25852.452
619.565	25984.635
619.693	25898.173
619.821	25992.038
619.949	25964.913
620.077	26007.087
620.205	26040.894
620.333	26061.394
620.462	26042.587
620.590	26064.269
620.718	26142.548
620.846	26121.856
620.974	26053.077
621.102	26136.942
621.230	26190.750
621.358	26240.346
621.487	26219.125
621.615	26198.260
621.743	26119.019
621.871	26232.192
621.999	26153.221
622.127	26168.740
622.255	26161.231
622.383	26151.346
622.512	26174.154
622.640	26176.587
622.768	26164.731
622.896	26291.596
623.024	26221.635
623.152	26235.606
623.280	26226.212
623.408	26264.125
623.537	26353.096
623.665	26281.567
623.793	26322.048
623.921	26312.702
624.049	26260.298
624.177	26308.913
624.305	26223.510
624.433	26248.462
624.562	26378.019
624.690	26428.769
624.818	26347.808
624.946	26319.231
625.074	26269.067
625.202	26316.163
625.330	26332.000
625.458	26475.221
625.587	26391.163
625.715	26440.365
625.843	26447.606
625.971	26484.692
626.099	26509.135
626.227	26464.510
626.355	26455.346
626.483	26484.721
626.612	26460.452
626.740	26509.308
626.868	26454.692
626.996	26613.712
627.124	26511.058
627.252	26537.865
627.380	26606.500
627.508	26550.885
627.637	26590.356
627.765	26704.038
627.893	26594.519
628.021	26681.500
628.149	26610.452
628.277	26721.779
628.405	26697.327
628.533	26690.019
628.662	26693.740
628.790	26879.308
628.918	26790.846
629.046	26903.962
629.174	26759.010
629.302	26837.740
629.430	26857.077
629.558	26856.577
629.687	26845.135
629.815	26919.183
629.943	27029.577
630.071	26950.856
630.199	26965.317
630.327	27028.865
630.455	27008.769
630.583	27070.673
630.712	27105.981
630.840	27095.692
630.968	27068.154
631.096	27111.904
631.224	27151.827
631.352	27257.529
631.480	27240.452
631.608	27369.731
631.737	27212.279
631.865	27360.769
631.993	27321.106
632.121	27464.788
632.249	27360.683
632.377	27265.846
632.505	27325.635
632.633	27483.817
632.762	27356.981
632.890	27431.346
633.018	27411.144
633.146	27433.538
633.274	27437.452
633.402	27503.202
633.530	27446.712
633.658	27463.894
633.787	27463.260
633.915	27482.221
634.043	27510.538
634.171	27546.077
634.299	27552.221
634.427	27536.692
634.555	27792.702
634.683	27596.856
634.812	27557.192
634.940	27494.144
635.068	27576.106
635.196	27556.981
635.324	27459.423
635.452	27446.875
635.580	27607.683
635.708	27499.346
635.837	27505.990
635.965	27489.173
636.093	27456.308
636.221	27469.279
636.349	27425.971
636.477	27384.952
636.605	27430.913
636.733	27416.375
636.862	27389.154
636.990	27424.740
637.118	27337.740
637.246	27313.423
637.374	27475.856
637.502	27285.067
637.630	27337.692
637.758	27231.971
637.887	27198.769
638.015	27322.337
638.143	27284.904
638.271	27190.875
638.399	27194.144
638.527	27138.904
638.655	27127.567
638.783	27194.279
638.912	27148.548
639.040	27074.721
639.168	26994.442
639.296	27058.019
639.424	27090.529
639.552	26941.135
639.680	26986.500
639.808	27018.894
639.937	26998.846
640.065	27013.163
640.193	27002.567
640.321	27061.077
640.449	27106.673
640.577	26997.250
640.705	27034.519
640.833	26952.933
640.962	27057.048
641.090	26932.952
641.218	26983.442
641.346	27076.125
641.474	27038.288
641.602	27018.433
641.730	27010.260
641.858	27008.740
641.987	27025.298
642.115	27134.856
642.243	27093.154
642.371	27166.250
642.499	27038.913
642.627	27117.471
642.755	27060.481
642.883	27057.298
643.012	27057.269
643.140	27165.587
643.268	27142.654
643.396	27070.990
643.524	27181.981
643.652	27203.288
643.780	27086.000
643.908	27198.490
644.037	27274.202
644.165	27230.077
644.293	27360.510
644.421	27158.346
644.549	27300.500
644.677	27264.192
644.805	27222.952
644.933	27245.231
645.062	27221.279
645.190	27362.558
645.318	27237.712
645.446	27284.452
645.574	27257.606
645.702	27317.558
645.830	27247.019
645.958	27142.981
646.087	27261.606
646.215	27212.240
646.343	27210.942
646.471	27299.279
646.599	27162.567
646.727	27221.423
646.855	27253.981
646.983	27225.952
647.112	27234.856
647.240	27186.615
647.368	27243.692
647.496	27191.913
647.624	27181.923
647.752	27155.846
647.880	27116.981
648.008	27170.692
648.137	27179.615
648.265	27155.010
648.393	27110.894
648.521	27032.615
648.649	27219.260
648.777	27082.875
648.905	27052.606
649.033	27106.856
649.162	26914.038
649.290	26830.106
649.418	26862.202
649.546	27030.096
649.674	26927.183
649.802	26820.894
649.930	26774.731
650.058	26750.279
650.187	26762.865
650.315	26706.885
650.443	26732.615
650.571	26570.942
650.699	26534.000
650.827	26621.798
650.955	26523.394
651.083	26603.317
651.212	26438.481
651.340	26482.423
651.468	26454.808
651.596	26451.644
651.724	26403.202
651.852	26337.837
651.980	26355.846
652.108	26249.779
652.237	26351.500
652.365	26283.731
652.493	26161.788
652.621	26119.865
652.749	26105.615
652.877	26013.981
653.005	26079.596
653.133	26071.250
653.262	25968.577
653.390	25939.519
653.518	26063.567
653.646	25937.846
653.774	25881.096
653.902	25945.221
654.030	25782.462
654.158	25752.442
654.287	25715.913
654.415	25608.635
654.543	25734.413
654.671	25682.942
654.799	25600.154
654.927	25622.212
655.055	25578.240
655.183	25459.173
655.312	25481.452
655.440	25339.779
655.568	25381.173
655.696	25409.615
655.824	25382.712
655.952	25344.510
656.080	25171.760
656.208	25220.433
656.337	25286.750
656.465	25373.615
656.593	25144.548
656.721	25218.154
656.849	25232.433
656.977	24960.683
657.105	24927.106
657.233	25011.173
657.362	24983.683
657.490	24983.635
657.618	24867.163
657.746	24962.019
657.874	24778.942
658.002	24746.635
658.130	24700.952
658.258	24635.000
658.387	24575.375
658.515	24576.606
658.643	24529.913
658.771	24563.481
658.899	24408.288
659.027	24401.135
659.155	24388.029
659.283	24321.856
659.412	24344.394
659.540	24243.471
659.668	24357.846
659.796	24342.490
659.924	24281.769
660.052	24337.567
660.180	24285.337
660.308	24314.481
660.437	24246.317
660.565	24180.798
660.693	24147.663
660.821	24254.240
660.949	24014.990
661.077	24018.317
661.205	24172.702
661.333	23975.144
661.462	23882.538
661.590	23919.962
661.718	23789.942
661.846	23840.971
661.974	23845.481
662.102	23815.385
662.230	23734.250
662.358	23682.192
662.487	23704.279
662.615	23550.625
662.743	23607.808
662.871	23514.538
662.999	23567.212
663.127	23456.644
663.255	23476.625
663.383	23539.048
663.512	23324.846
663.640	23354.240
663.768	23316.019
663.896	23264.577
664.024	23257.154
664.152	23262.567
664.280	23308.221
664.408	23152.471
664.537	23118.394
664.665	23146.221
664.793	23082.279
664.921	22983.673
665.049	23151.385
665.177	22991.221
665.305	22934.442
665.433	22980.077
665.562	23101.269
665.690	22902.471
665.818	22995.702
665.946	22802.894
666.074	22729.173
666.202	22818.933
666.330	22719.212
666.458	23055.846
666.587	22621.269
666.715	22554.500
666.843	22537.577
666.971	22613.952
667.099	22575.942
667.227	22554.673
667.355	22561.596
667.483	22457.644
667.612	22485.644
667.740	22335.048
667.868	22379.952
667.996	22284.769
668.124	22368.904
668.252	22371.183
668.380	22288.635
668.508	22352.385
668.637	22168.702
668.765	22138.817
668.893	22072.327
669.021	22000.298
669.149	22037.692
669.277	21923.865
669.405	21992.163
669.533	21982.952
669.662	21850.337
669.790	21819.865
669.918	21837.894
670.046	21880.788
670.174	21699.163
670.302	21697.596
670.430	21595.663
670.558	21665.558
670.687	21673.904
670.815	21520.183
670.943	21473.221
671.071	21357.481
671.199	21316.029
671.327	21308.913
671.455	21348.519
671.583	21249.192
671.712	21178.587
671.840	21149.904
671.968	21275.317
672.096	21142.433
672.224	20933.519
672.352	20943.106
672.480	20855.894
672.608	20795.750
672.737	20743.808
672.865	20678.394
672.993	20609.087
673.121	20568.260
673.249	20436.058
673.377	20507.144
673.505	20331.538
673.633	20372.144
673.762	20326.519
673.890	20198.692
674.018	20303.712
674.146	20138.375
674.274	20117.510
674.402	20136.644
674.530	20047.971
674.658	19899.346
674.787	19854.163
674.915	19916.654
675.043	19824.125
675.171	19706.913
675.299	19588.606
675.427	19643.596
675.555	19555.731
675.683	19463.442
675.812	19368.798
675.940	19382.856
676.068	19309.163
676.196	19342.712
676.324	19139.798
676.452	19055.760
676.580	18997.702
676.708	18975.144
676.837	18915.875
676.965	18926.510
677.093	19009.365
677.221	18763.875
677.349	18635.712
677.477	18687.087
677.605	18630.452
677.733	18434.673
677.862	18456.856
677.990	18429.923
678.118	18370.740
678.246	18344.308
678.374	18277.837
678.502	18223.038
678.630	18137.096
678.758	18079.423
678.887	18105.462
679.015	17896.827
679.143	17860.413
679.271	17815.000
679.399	17777.654
679.527	17756.125
679.655	17820.519
679.783	17601.029
679.912	17555.625
680.040	17669.865
680.168	17377.558
680.296	17389.894
680.424	17367.798
680.552	17315.231
680.680	17255.865
680.808	17188.337
680.937	17157.981
681.065	17118.221
681.193	17001.942
681.321	16993.567
681.449	17014.913
681.577	16889.029
681.705	16876.356
681.833	16866.952
681.962	16740.731
682.090	16672.558
682.218	16665.240
682.346	16643.115
682.474	16514.904
682.602	16518.596
682.730	16544.856
682.858	16377.115
682.987	16394.115
683.115	16351.635
683.243	16331.481
683.371	16264.865
683.499	16160.163
683.627	16202.048
683.755	16110.231
683.883	16127.260
684.012	16111.173
684.140	15941.173
684.268	16032.019
684.396	15964.846
684.524	15911.183
684.652	15856.327
684.780	15893.087
684.908	15826.490
685.037	15855.087
685.165	15745.471
685.293	15729.500
685.421	15737.240
685.549	15666.375
685.677	15574.856
685.805	15624.019
685.933	15528.202
686.062	15554.962
686.190	15464.192
686.318	15419.029
686.446	15396.644
686.574	15288.010
686.702	15345.846
686.830	15298.702
686.958	15306.788
687.087	15162.087
687.215	15168.000
687.343	15122.135
687.471	15216.558
687.599	14956.317
687.727	14966.913
687.855	14900.029
687.983	14834.346
688.112	14846.250
688.240	14764.048
688.368	14811.087
688.496	14654.346
688.624	14676.077
688.752	14808.856
688.880	14596.510
689.008	14510.558
689.137	14536.096
689.265	14486.548
689.393	14378.683
689.521	14379.260
689.649	14431.779
689.777	14303.750
689.905	14335.404
690.033	14191.087
690.162	14157.712
690.290	14169.990
690.418	14090.548
690.546	14032.423
690.674	14010.135
690.802	13987.635
690.930	13915.529
691.058	13833.635
691.187	13788.673
691.315	13730.298
691.443	13649.635
691.571	13664.750
691.699	13547.894
691.827	13523.712
691.955	13508.038
692.083	13444.038
692.212	13358.010
692.340	13357.769
692.468	13309.577
692.596	13260.183
692.724	13168.673
692.852	13144.875
692.980	13158.442
693.108	13106.990
693.237	12955.404
693.365	12918.904
693.493	12881.606
693.621	12823.692
693.749	12767.644
693.877	12764.500
694.005	12619.019
694.133	12590.471
694.262	12608.442
694.390	12487.096
694.518	12459.606
694.646	12399.865
694.774	12311.288
694.902	12286.529
695.030	12232.279
695.158	12175.798
695.287	12184.538
695.415	12088.433
695.543	12040.375
695.671	11950.942
695.799	12027.529
695.927	11902.577
696.055	11859.942
696.183	11785.260
696.312	11899.760
696.440	11727.202
696.568	11682.837
696.696	11540.221
696.824	11472.740
696.952	11467.163
697.080	11414.038
697.208	11366.558
697.337	11280.788
697.465	11275.587
697.593	11162.173
697.721	11259.558
697.849	11079.904
697.977	11069.269
698.105	11099.683
698.233	10977.240
698.362	10860.029
698.490	10984.837
698.618	10792.644
698.746	10735.106
698.874	10744.904
699.002	10664.712
699.130	10637.212
699.258	10558.567
699.387	10498.183
699.515	10534.231
699.643	10505.308
699.771	10491.529
699.899	10336.337
700.027	10237.856
700.155	10302.683
700.283	10159.769
700.412	10145.260
700.540	10123.712
700.668	10142.567
700.796	9997.115
700.924	9983.192
701.052	9955.587
701.180	9928.327
701.308	9806.567
701.437	9730.298
701.565	9717.423
701.693	9713.721
701.821	9868.923
701.949	9578.327
702.077	9531.298
702.205	9622.952
702.333	9482.288
702.462	9386.154
702.590	9477.154
702.718	9307.846
702.846	9468.337
702.974	9209.731
703.102	9161.962
703.230	9175.981
703.358	9086.442
703.487	9031.529
703.615	9008.865
703.743	8924.269
703.871	8949.750
703.999	8870.231
704.127	8815.529
704.255	8762.923
704.383	8756.337
704.512	8774.952
704.640	8704.288
704.768	8739.337
704.896	8588.115
705.024	8468.308
705.152	8512.067
705.280	8512.596
705.408	8387.808
705.537	8332.385
705.665	8313.712
705.793	8270.596
705.921	8263.135
706.049	8150.048
706.177	8179.760
706.305	8100.971
706.433	8105.519
706.562	8060.683
706.690	8024.827
706.818	7982.692
706.946	7902.760
707.074	7845.817
707.202	7814.077
707.330	7764.625
707.458	7734.923
707.587	7685.615
707.715	7681.904
707.843	7646.212
707.971	7629.000
708.099	7529.154
708.227	7493.115
708.355	7459.346
708.483	7452.856
708.612	7405.596
708.740	7325.962
708.868	7311.644
708.996	7352.644
709.124	7306.942
709.252	7245.750
709.380	7232.394
709.508	7159.692
709.637	7151.519
709.765	7118.433
709.893	7104.606
710.021	6988.731
710.149	7099.250
710.277	6943.769
710.405	6948.087
710.533	6881.933
710.662	6855.135
710.790	6979.721
710.918	6763.971
711.046	6825.731
711.174	6748.519
711.302	6743.240
711.430	6694.779
711.558	6707.125
711.687	6658.798
711.815	6564.375
711.943	6544.144
712.071	6539.529
712.199	6556.346
712.327	6603.654
712.455	6442.231
712.583	6596.817
712.712	6418.288
712.840	6452.673
712.968	6368.942
713.096	6305.442
713.224	6287.462
713.352	6262.635
713.480	6215.385
713.608	6172.375
713.737	6141.798
713.865	6196.654
713.993	6140.462
714.121	6104.442
714.249	6047.529
714.377	6005.452
714.505	5984.404
714.633	5999.683
714.762	5955.308
714.890	5940.990
715.018	5920.212
715.146	5922.048
715.274	5844.712
715.402	5829.279
715.530	5785.365
715.658	5806.423
715.787	5750.692
715.915	5812.827
716.043	5682.308
716.171	5800.404
716.299	5617.760
716.427	5676.250
716.555	5601.356
716.683	5552.240
716.812	5570.125
716.940	5527.625
717.068	5488.683
717.196	5598.942
717.324	5470.125
717.452	5434.750
717.580	5454.375
717.708	5360.288
717.837	5354.519
717.965	5345.000
718.093	5292.606
718.221	5304.163
718.349	5296.115
718.477	5228.808
718.605	5272.788
718.733	5209.433
718.862	5206.779
718.990	5099.423
719.118	5157.587
719.246	5075.221
719.374	5059.115
719.502	5080.365
719.630	5118.135
719.758	4978.808
719.887	4959.337
720.015	4969.250
720.143	4989.452
720.271	4869.490
