90_140_wo_Pol_at_750.00nm_cut_at_1179.00Y_01.dat
03.07.2023
11:34:15
cut middle at Y: 1179.00
top cursor: 1231 down cursor: 1127 mean of: 104 lines , 2560 datapoints
wavelength(nm)	intensity[arb. units]
585.996	25507.567
586.124	25074.625
586.252	25028.885
586.380	25105.933
586.508	25210.519
586.637	25298.240
586.765	25391.615
586.893	25389.442
587.021	25468.125
587.149	25546.654
587.277	25551.183
587.405	25565.413
587.533	25757.702
587.662	25689.163
587.790	25727.231
587.918	25713.173
588.046	25691.471
588.174	25786.029
588.302	25818.510
588.430	25830.750
588.558	25821.308
588.687	25830.433
588.815	25901.837
588.943	25812.173
589.071	25831.865
589.199	25922.615
589.327	25848.962
589.455	25886.865
589.583	25862.663
589.712	25863.529
589.840	25833.327
589.968	25837.125
590.096	25896.702
590.224	25907.904
590.352	26015.308
590.480	25907.779
590.608	25823.144
590.737	25881.760
590.865	25887.202
590.993	25824.721
591.121	25879.519
591.249	25857.683
591.377	25887.269
591.505	25909.529
591.633	25847.490
591.762	25884.692
591.890	25943.221
592.018	25960.885
592.146	26039.913
592.274	25932.567
592.402	25951.644
592.530	26177.971
592.658	26105.673
592.787	26138.317
592.915	26189.442
593.043	26096.625
593.171	26229.990
593.299	26136.615
593.427	26181.327
593.555	26224.567
593.683	26295.327
593.812	26272.971
593.940	26399.952
594.068	26399.115
594.196	26406.577
594.324	26522.587
594.452	26704.452
594.580	26645.952
594.708	26739.558
594.837	26735.096
594.965	26886.663
595.093	26856.288
595.221	27042.683
595.349	27007.635
595.477	27045.125
595.605	27148.500
595.733	27150.856
595.862	27210.558
595.990	27184.740
596.118	27303.577
596.246	27321.462
596.374	27401.115
596.502	27448.971
596.630	27456.750
596.758	27418.673
596.887	27523.558
597.015	27523.481
597.143	27564.183
597.271	27590.712
597.399	27706.606
597.527	27634.846
597.655	27704.365
597.783	27690.923
597.912	27676.163
598.040	27749.337
598.168	27752.442
598.296	27617.654
598.424	27828.731
598.552	27678.375
598.680	27706.308
598.808	27832.356
598.937	27749.135
599.065	27692.817
599.193	27746.885
599.321	27749.875
599.449	27683.029
599.577	27667.317
599.705	27632.096
599.833	27638.731
599.962	27571.471
600.090	27629.721
600.218	27541.231
600.346	27607.173
600.474	27581.760
600.602	27558.375
600.730	27589.933
600.858	27652.192
600.987	27715.769
601.115	27610.683
601.243	27612.337
601.371	27741.288
601.499	27722.096
601.627	27720.798
601.755	27766.423
601.883	27827.173
602.012	27699.394
602.140	27834.942
602.268	27827.029
602.396	28042.894
602.524	27974.106
602.652	28114.500
602.780	28087.654
602.908	28182.048
603.037	28290.462
603.165	28349.077
603.293	28402.010
603.421	28449.404
603.549	28497.423
603.677	28591.529
603.805	28703.625
603.933	28778.942
604.062	28871.962
604.190	28961.692
604.318	29058.317
604.446	29060.144
604.574	29189.625
604.702	29218.837
604.830	29281.808
604.958	29343.740
605.087	29521.173
605.215	29650.144
605.343	29765.221
605.471	29763.663
605.599	29820.673
605.727	30008.990
605.855	30060.990
605.983	30124.673
606.112	30133.913
606.240	30175.260
606.368	30236.404
606.496	30237.519
606.624	30374.952
606.752	30367.673
606.880	30446.875
607.008	30505.644
607.137	30547.221
607.265	30609.894
607.393	30593.596
607.521	30665.702
607.649	30595.760
607.777	30603.952
607.905	30622.452
608.033	30644.606
608.162	30617.337
608.290	30651.115
608.418	30749.308
608.546	30720.010
608.674	30733.769
608.802	30632.510
608.930	30666.654
609.058	30664.481
609.187	30691.183
609.315	30621.567
609.443	30553.587
609.571	30636.971
609.699	30526.019
609.827	30602.260
609.955	30509.558
610.083	30486.548
610.212	30441.962
610.340	30421.663
610.468	30402.240
610.596	30386.058
610.724	30353.067
610.852	30406.942
610.980	30383.394
611.108	30361.490
611.237	30347.038
611.365	30363.038
611.493	30365.048
611.621	30327.490
611.749	30372.212
611.877	30465.067
612.005	30431.337
612.133	30504.538
612.262	30470.250
612.390	30542.788
612.518	30593.971
612.646	30604.385
612.774	30652.154
612.902	30637.471
613.030	30713.817
613.158	30657.087
613.287	30770.923
613.415	30684.423
613.543	30826.000
613.671	30843.606
613.799	30905.212
613.927	30916.625
614.055	31060.952
614.183	31029.558
614.312	31079.115
614.440	31212.115
614.568	31247.875
614.696	31311.673
614.824	31349.413
614.952	31462.221
615.080	31510.038
615.208	31622.260
615.337	31730.769
615.465	31637.096
615.593	31801.087
615.721	31797.635
615.849	31963.279
615.977	31916.308
616.105	31985.875
616.233	32004.798
616.362	32146.635
616.490	32197.769
616.618	32242.740
616.746	32381.356
616.874	32412.894
617.002	32502.067
617.130	32497.500
617.258	32445.337
617.387	32545.125
617.515	32601.769
617.643	32591.471
617.771	32644.010
617.899	32680.712
618.027	32715.865
618.155	32757.279
618.283	32793.202
618.412	32814.298
618.540	32916.327
618.668	32929.413
618.796	32895.019
618.924	32905.692
619.052	32919.337
619.180	32874.279
619.308	32810.760
619.437	32842.548
619.565	32847.029
619.693	32827.356
619.821	32905.981
619.949	32875.192
620.077	32904.356
620.205	32885.788
620.333	32976.404
620.462	32900.894
620.590	32965.990
620.718	32928.029
620.846	33030.635
620.974	32926.933
621.102	32901.538
621.230	32895.923
621.358	33033.654
621.487	32915.673
621.615	32898.712
621.743	32797.337
621.871	32835.106
621.999	32778.654
622.127	32767.885
622.255	32829.413
622.383	32787.212
622.512	32770.904
622.640	32719.298
622.768	32789.106
622.896	32794.654
623.024	32758.702
623.152	32723.923
623.280	32838.423
623.408	32745.019
623.537	32832.962
623.665	32755.144
623.793	32772.548
623.921	32774.952
624.049	32731.481
624.177	32675.663
624.305	32653.135
624.433	32622.644
624.562	32687.010
624.690	32739.971
624.818	32551.990
624.946	32578.337
625.074	32538.346
625.202	32554.462
625.330	32513.644
625.458	32641.154
625.587	32584.298
625.715	32565.385
625.843	32552.692
625.971	32663.250
626.099	32547.375
626.227	32599.904
626.355	32519.654
626.483	32613.462
626.612	32527.894
626.740	32645.288
626.868	32639.904
626.996	32622.856
627.124	32617.106
627.252	32644.683
627.380	32661.058
627.508	32631.192
627.637	32598.760
627.765	32751.894
627.893	32740.933
628.021	32781.240
628.149	32660.885
628.277	32781.048
628.405	32753.327
628.533	32766.692
628.662	32774.596
628.790	32910.721
628.918	32854.135
629.046	32998.135
629.174	32935.625
629.302	32938.346
629.430	32951.365
629.558	33041.942
629.687	33024.865
629.815	33085.567
629.943	33198.279
630.071	33172.856
630.199	33266.856
630.327	33246.731
630.455	33317.433
630.583	33307.202
630.712	33264.894
630.840	33359.663
630.968	33372.173
631.096	33428.875
631.224	33396.365
631.352	33601.433
631.480	33545.202
631.608	33721.673
631.737	33517.231
631.865	33608.163
631.993	33571.817
632.121	33840.125
632.249	33677.779
632.377	33647.394
632.505	33716.865
632.633	33848.875
632.762	33652.798
632.890	33717.038
633.018	33710.202
633.146	33699.308
633.274	33686.048
633.402	33664.231
633.530	33693.721
633.658	33684.740
633.787	33615.558
633.915	33643.135
634.043	33665.096
634.171	33663.788
634.299	33597.212
634.427	33566.019
634.555	33741.529
634.683	33538.452
634.812	33539.519
634.940	33440.971
635.068	33463.529
635.196	33420.308
635.324	33403.635
635.452	33353.269
635.580	33364.740
635.708	33252.452
635.837	33222.971
635.965	33110.404
636.093	33127.154
636.221	32962.298
636.349	32920.010
636.477	32881.558
636.605	32888.385
636.733	32814.798
636.862	32762.327
636.990	32701.702
637.118	32622.990
637.246	32620.933
637.374	32658.087
637.502	32453.731
637.630	32367.654
637.758	32306.740
637.887	32246.038
638.015	32315.702
638.143	32204.808
638.271	32084.644
638.399	32058.192
638.527	32015.019
638.655	31963.442
638.783	31914.144
638.912	31933.163
639.040	31749.356
639.168	31700.298
639.296	31617.394
639.424	31702.115
639.552	31600.952
639.680	31619.346
639.808	31558.904
639.937	31461.048
640.065	31514.779
640.193	31453.144
640.321	31535.029
640.449	31492.808
640.577	31400.288
640.705	31391.510
640.833	31332.442
640.962	31375.519
641.090	31275.019
641.218	31298.923
641.346	31303.673
641.474	31272.990
641.602	31285.260
641.730	31235.606
641.858	31183.288
641.987	31192.990
642.115	31347.788
642.243	31172.885
642.371	31305.327
642.499	31117.798
642.627	31200.096
642.755	31169.923
642.883	31127.192
643.012	31119.846
643.140	31116.683
643.268	31148.606
643.396	31081.192
643.524	31097.471
643.652	31158.779
643.780	31098.288
643.908	31071.538
644.037	31096.663
644.165	31039.413
644.293	31221.740
644.421	31029.096
644.549	31025.163
644.677	31008.308
644.805	30994.856
644.933	30914.394
645.062	30991.702
645.190	31096.904
645.318	31026.827
645.446	30952.865
645.574	30919.971
645.702	30912.788
645.830	30940.683
645.958	30885.173
646.087	30845.615
646.215	30743.365
646.343	30805.529
646.471	30912.067
646.599	30729.615
646.727	30731.567
646.855	30709.471
646.983	30676.865
647.112	30702.048
647.240	30606.413
647.368	30593.413
647.496	30606.817
647.624	30498.048
647.752	30496.779
647.880	30414.760
648.008	30444.154
648.137	30418.260
648.265	30404.538
648.393	30432.413
648.521	30296.981
648.649	30412.865
648.777	30265.019
648.905	30165.087
649.033	30210.000
649.162	30022.250
649.290	29919.087
649.418	29940.231
649.546	30020.827
649.674	29824.087
649.802	29806.971
649.930	29683.548
650.058	29640.913
650.187	29682.962
650.315	29590.529
650.443	29586.346
650.571	29394.538
650.699	29356.865
650.827	29338.183
650.955	29281.596
651.083	29307.471
651.212	29208.510
651.340	29135.115
651.468	29039.067
651.596	28951.625
651.724	28948.750
651.852	28920.875
651.980	28829.356
652.108	28739.942
652.237	28778.096
652.365	28648.404
652.493	28566.125
652.621	28495.529
652.749	28501.875
652.877	28469.750
653.005	28424.779
653.133	28374.519
653.262	28279.894
653.390	28163.212
653.518	28261.346
653.646	28050.288
653.774	28027.452
653.902	28073.317
654.030	28019.067
654.158	27947.519
654.287	27907.087
654.415	27803.375
654.543	27848.827
654.671	27760.394
654.799	27712.510
654.927	27596.327
655.055	27588.519
655.183	27507.596
655.312	27518.673
655.440	27440.375
655.568	27413.519
655.696	27388.365
655.824	27289.865
655.952	27265.510
656.080	27138.673
656.208	27161.971
656.337	27156.212
656.465	27257.115
656.593	27071.654
656.721	27060.346
656.849	27004.144
656.977	26788.202
657.105	26790.144
657.233	26785.856
657.362	26797.894
657.490	26788.971
657.618	26669.279
657.746	26617.048
657.874	26430.154
658.002	26312.365
658.130	26225.077
658.258	26166.010
658.387	26119.019
658.515	26111.904
658.643	25986.981
658.771	26053.750
658.899	25952.712
659.027	25895.837
659.155	25860.010
659.283	25762.154
659.412	25759.529
659.540	25740.096
659.668	25657.683
659.796	25770.673
659.924	25708.288
660.052	25792.279
660.180	25668.163
660.308	25700.567
660.437	25650.846
660.565	25516.163
660.693	25319.462
660.821	25462.875
660.949	25242.394
661.077	25214.423
661.205	25341.865
661.333	25160.125
661.462	25085.500
661.590	25163.029
661.718	24964.740
661.846	24974.779
661.974	24889.452
662.102	24848.885
662.230	24784.115
662.358	24720.740
662.487	24692.308
662.615	24668.933
662.743	24591.394
662.871	24663.413
662.999	24522.154
663.127	24400.308
663.255	24380.183
663.383	24444.692
663.512	24288.971
663.640	24271.740
663.768	24275.962
663.896	24183.327
664.024	24186.260
664.152	24139.144
664.280	24201.529
664.408	23996.529
664.537	23958.683
664.665	23975.163
664.793	23965.317
664.921	23836.250
665.049	23913.558
665.177	23810.990
665.305	23777.635
665.433	23734.798
665.562	23827.788
665.690	23711.510
665.818	23809.452
665.946	23537.067
666.074	23506.760
666.202	23497.077
666.330	23413.971
666.458	23696.702
666.587	23400.913
666.715	23298.500
666.843	23279.933
666.971	23248.481
667.099	23260.567
667.227	23294.894
667.355	23220.231
667.483	23119.135
667.612	23171.106
667.740	23076.183
667.868	22981.567
667.996	22990.952
668.124	22943.125
668.252	22975.317
668.380	22831.135
668.508	22867.077
668.637	22755.269
668.765	22713.644
668.893	22644.385
669.021	22620.154
669.149	22654.769
669.277	22472.202
669.405	22639.548
669.533	22561.298
669.662	22431.625
669.790	22370.490
669.918	22378.019
670.046	22424.356
670.174	22226.077
670.302	22190.240
670.430	22078.904
670.558	22064.885
670.687	22193.538
670.815	21980.894
670.943	21979.942
671.071	21894.510
671.199	21793.317
671.327	21742.529
671.455	21777.096
671.583	21657.750
671.712	21646.048
671.840	21630.365
671.968	21729.375
672.096	21605.067
672.224	21428.481
672.352	21366.558
672.480	21243.356
672.608	21304.010
672.737	21177.990
672.865	21139.856
672.993	21056.712
673.121	20997.288
673.249	20976.269
673.377	20903.115
673.505	20840.846
673.633	20863.827
673.762	20758.827
673.890	20718.212
674.018	20697.317
674.146	20545.481
674.274	20558.038
674.402	20557.423
674.530	20451.019
674.658	20358.163
674.787	20288.183
674.915	20394.087
675.043	20200.250
675.171	20094.510
675.299	20029.952
675.427	19991.279
675.555	19985.356
675.683	19879.394
675.812	19785.144
675.940	19778.769
676.068	19643.115
676.196	19703.894
676.324	19567.144
676.452	19524.731
676.580	19432.356
676.708	19359.510
676.837	19323.385
676.965	19421.279
677.093	19405.865
677.221	19160.615
677.349	19088.231
677.477	19139.596
677.605	18968.856
677.733	18913.240
677.862	18881.029
677.990	18873.269
678.118	18868.587
678.246	18761.577
678.374	18750.663
678.502	18669.327
678.630	18532.404
678.758	18524.731
678.887	18615.933
679.015	18367.721
679.143	18325.481
679.271	18312.442
679.399	18230.260
679.527	18229.596
679.655	18212.240
679.783	18104.971
679.912	17991.510
680.040	18132.442
680.168	17938.394
680.296	17930.212
680.424	17832.481
680.552	17800.577
680.680	17725.173
680.808	17654.644
680.937	17602.981
681.065	17652.702
681.193	17559.837
681.321	17480.981
681.449	17522.221
681.577	17441.096
681.705	17416.058
681.833	17351.692
681.962	17297.029
682.090	17216.452
682.218	17189.817
682.346	17171.327
682.474	17083.856
682.602	17054.365
682.730	17099.923
682.858	17010.183
682.987	16976.769
683.115	16916.721
683.243	16896.817
683.371	16827.481
683.499	16772.346
683.627	16803.019
683.755	16734.760
683.883	16668.365
684.012	16626.913
684.140	16577.788
684.268	16610.212
684.396	16633.538
684.524	16512.269
684.652	16505.308
684.780	16478.942
684.908	16404.933
685.037	16407.288
685.165	16340.933
685.293	16352.212
685.421	16301.327
685.549	16259.779
685.677	16207.885
685.805	16161.077
685.933	16118.558
686.062	16104.269
686.190	15996.981
686.318	15969.760
686.446	15957.010
686.574	15884.635
686.702	15897.625
686.830	15840.654
686.958	15871.144
687.087	15739.538
687.215	15731.481
687.343	15652.740
687.471	15825.577
687.599	15560.327
687.727	15535.760
687.855	15495.240
687.983	15446.462
688.112	15474.923
688.240	15421.663
688.368	15388.231
688.496	15329.625
688.624	15239.731
688.752	15360.202
688.880	15205.144
689.008	15123.202
689.137	15074.269
689.265	15034.885
689.393	15002.673
689.521	14952.856
689.649	15066.385
689.777	14946.413
689.905	14933.010
690.033	14786.346
690.162	14774.433
690.290	14795.779
690.418	14682.942
690.546	14706.596
690.674	14683.192
690.802	14646.663
690.930	14539.942
691.058	14510.365
691.187	14453.240
691.315	14406.933
691.443	14390.567
691.571	14343.817
691.699	14245.087
691.827	14221.317
691.955	14242.817
692.083	14164.019
692.212	14142.567
692.340	14108.106
692.468	14097.769
692.596	14024.558
692.724	13961.769
692.852	13996.846
692.980	13938.692
693.108	13945.798
693.237	13815.500
693.365	13741.308
693.493	13707.769
693.621	13705.587
693.749	13612.962
693.877	13640.827
694.005	13509.769
694.133	13464.606
694.262	13502.894
694.390	13344.327
694.518	13375.077
694.646	13326.471
694.774	13221.317
694.902	13225.750
695.030	13190.952
695.158	13097.837
695.287	13073.894
695.415	13052.654
695.543	12972.519
695.671	12877.212
695.799	13018.625
695.927	12847.221
696.055	12840.673
696.183	12743.327
696.312	12897.856
696.440	12728.596
696.568	12668.375
696.696	12550.538
696.824	12502.779
696.952	12494.038
697.080	12463.933
697.208	12354.490
697.337	12311.433
697.465	12300.433
697.593	12226.635
697.721	12300.365
697.849	12162.442
697.977	12144.933
698.105	12182.327
698.233	12071.952
698.362	11992.500
698.490	12097.933
698.618	11898.971
698.746	11875.221
698.874	11898.538
699.002	11832.404
699.130	11835.760
699.258	11735.000
699.387	11635.808
699.515	11663.760
699.643	11628.808
699.771	11676.663
699.899	11513.365
700.027	11459.817
700.155	11468.885
700.283	11345.029
700.412	11365.058
700.540	11358.433
700.668	11354.471
700.796	11239.058
700.924	11250.385
701.052	11232.010
701.180	11147.827
701.308	11061.231
701.437	11040.990
701.565	11002.106
701.693	10986.048
701.821	11117.308
701.949	10891.135
702.077	10846.250
702.205	10887.673
702.333	10792.221
702.462	10738.375
702.590	10745.808
702.718	10613.615
702.846	10777.433
702.974	10571.606
703.102	10530.692
703.230	10527.452
703.358	10451.481
703.487	10383.231
703.615	10391.288
703.743	10307.837
703.871	10285.606
703.999	10258.788
704.127	10186.846
704.255	10146.346
704.383	10149.308
704.512	10179.827
704.640	10107.760
704.768	10145.673
704.896	10030.394
705.024	9889.885
705.152	9922.625
705.280	9938.442
705.408	9789.212
705.537	9782.962
705.665	9756.490
705.793	9680.702
705.921	9655.635
706.049	9589.856
706.177	9607.952
706.305	9521.981
706.433	9543.538
706.562	9493.269
706.690	9446.019
706.818	9409.077
706.946	9331.173
707.074	9275.846
707.202	9216.712
707.330	9203.231
707.458	9187.231
707.587	9116.538
707.715	9129.933
707.843	9129.894
707.971	9082.981
708.099	8959.692
708.227	8943.558
708.355	8901.404
708.483	8876.567
708.612	8867.894
708.740	8782.423
708.868	8766.577
708.996	8791.731
709.124	8775.606
709.252	8722.942
709.380	8681.490
709.508	8615.933
709.637	8652.865
709.765	8566.615
709.893	8602.731
710.021	8470.010
710.149	8559.644
710.277	8402.856
710.405	8374.019
710.533	8342.673
710.662	8339.269
710.790	8419.394
710.918	8239.135
711.046	8294.260
711.174	8229.558
711.302	8228.096
711.430	8165.346
711.558	8194.933
711.687	8131.365
711.815	8051.942
711.943	8009.837
712.071	8015.202
712.199	8002.413
712.327	8034.317
712.455	7894.760
712.583	8080.337
712.712	7874.702
712.840	7886.952
712.968	7794.981
713.096	7783.500
713.224	7750.875
713.352	7701.510
713.480	7668.260
713.608	7623.135
713.737	7614.404
713.865	7635.288
713.993	7565.212
714.121	7566.423
714.249	7501.471
714.377	7468.673
714.505	7435.933
714.633	7410.779
714.762	7380.337
714.890	7369.356
715.018	7342.077
715.146	7358.942
715.274	7266.269
715.402	7257.404
715.530	7239.846
715.658	7249.183
715.787	7206.654
715.915	7263.808
716.043	7142.462
716.171	7259.317
716.299	7054.279
716.427	7150.971
716.555	7029.577
716.683	7031.048
716.812	6969.010
716.940	6944.106
717.068	6895.548
717.196	7071.192
717.324	6921.250
717.452	6852.827
717.580	6905.221
717.708	6775.865
717.837	6771.250
717.965	6801.510
718.093	6730.740
718.221	6741.231
718.349	6766.567
718.477	6662.173
718.605	6741.952
718.733	6609.702
718.862	6641.827
718.990	6558.298
719.118	6620.779
719.246	6496.279
719.374	6482.971
719.502	6545.327
719.630	6586.683
719.758	6419.029
719.887	6375.029
720.015	6400.096
