70_100_0_Pol_at_750.00nm_cut_at_1179.00Y_02.dat
03.07.2023
10:48:00
cut middle at Y: 1179.00
top cursor: 1231 down cursor: 1127 mean of: 104 lines , 2560 datapoints
wavelength(nm)	intensity[arb. units]
585.996	32073.500
586.124	31486.625
586.252	31491.327
586.380	31597.827
586.508	31680.788
586.637	31781.788
586.765	31855.462
586.893	31891.933
587.021	31892.567
587.149	32045.144
587.277	32121.279
587.405	32118.365
587.533	32255.471
587.662	32300.288
587.790	32243.231
587.918	32272.587
588.046	32222.952
588.174	32332.087
588.302	32372.942
588.430	32406.808
588.558	32301.625
588.687	32374.087
588.815	32445.712
588.943	32320.260
589.071	32380.904
589.199	32408.202
589.327	32390.490
589.455	32423.423
589.583	32365.471
589.712	32349.913
589.840	32369.221
589.968	32344.673
590.096	32446.615
590.224	32420.202
590.352	32547.654
590.480	32391.221
590.608	32363.163
590.737	32458.837
590.865	32497.760
590.993	32434.337
591.121	32447.625
591.249	32439.971
591.377	32481.702
591.505	32489.981
591.633	32507.442
591.762	32483.548
591.890	32603.125
592.018	32630.663
592.146	32604.692
592.274	32609.144
592.402	32634.654
592.530	32848.644
592.658	32684.933
592.787	32797.308
592.915	32873.846
593.043	32767.019
593.171	32953.933
593.299	32909.010
593.427	32946.212
593.555	33007.971
593.683	33109.779
593.812	33058.260
593.940	33196.577
594.068	33211.433
594.196	33291.808
594.324	33340.058
594.452	33548.404
594.580	33427.317
594.708	33609.837
594.837	33665.183
594.965	33801.385
595.093	33796.712
595.221	33957.865
595.349	33998.000
595.477	33985.519
595.605	34136.798
595.733	34152.788
595.862	34124.548
595.990	34219.202
596.118	34290.817
596.246	34396.125
596.374	34416.173
596.502	34468.279
596.630	34547.077
596.758	34483.904
596.887	34683.260
597.015	34692.163
597.143	34695.135
597.271	34655.635
597.399	34877.327
597.527	34757.981
597.655	34807.798
597.783	34847.529
597.912	34833.038
598.040	34868.673
598.168	34821.394
598.296	34828.010
598.424	35015.731
598.552	34815.000
598.680	34838.596
598.808	35015.240
598.937	34935.038
599.065	34932.221
599.193	34945.096
599.321	34953.981
599.449	34891.442
599.577	34845.750
599.705	34867.288
599.833	34845.788
599.962	34850.077
600.090	34874.221
600.218	34847.606
600.346	34868.413
600.474	34889.962
600.602	34865.423
600.730	34956.490
600.858	34972.654
600.987	35075.856
601.115	34931.375
601.243	35048.567
601.371	35063.731
601.499	35111.962
601.627	35269.144
601.755	35278.933
601.883	35362.413
602.012	35206.769
602.140	35315.923
602.268	35328.413
602.396	35525.462
602.524	35545.154
602.652	35723.279
602.780	35695.298
602.908	35813.337
603.037	35974.625
603.165	36093.067
603.293	36184.298
603.421	36280.317
603.549	36278.144
603.677	36333.769
603.805	36513.481
603.933	36630.740
604.062	36710.087
604.190	36972.635
604.318	37019.048
604.446	37110.365
604.574	37194.500
604.702	37270.683
604.830	37381.837
604.958	37487.365
605.087	37664.596
605.215	37858.019
605.343	37876.452
605.471	37979.625
605.599	38074.606
605.727	38284.298
605.855	38336.933
605.983	38433.125
606.112	38581.462
606.240	38559.163
606.368	38632.442
606.496	38727.385
606.624	38839.019
606.752	38930.942
606.880	39053.558
607.008	39104.923
607.137	39096.923
607.265	39212.625
607.393	39304.106
607.521	39309.875
607.649	39392.933
607.777	39361.894
607.905	39366.038
608.033	39403.721
608.162	39431.279
608.290	39438.231
608.418	39606.769
608.546	39549.519
608.674	39650.865
608.802	39589.856
608.930	39585.337
609.058	39629.308
609.187	39662.375
609.315	39656.567
609.443	39617.173
609.571	39836.750
609.699	39643.385
609.827	39675.471
609.955	39741.135
610.083	39704.750
610.212	39736.462
610.340	39683.519
610.468	39702.942
610.596	39729.760
610.724	39702.221
610.852	39794.712
610.980	39772.606
611.108	39806.606
611.237	39837.442
611.365	39891.683
611.493	39863.096
611.621	39904.567
611.749	39966.087
611.877	40077.981
612.005	40108.875
612.133	40149.337
612.262	40144.798
612.390	40318.596
612.518	40333.558
612.646	40422.615
612.774	40486.885
612.902	40544.663
613.030	40684.481
613.158	40647.038
613.287	40786.721
613.415	40796.923
613.543	40890.212
613.671	40878.846
613.799	41004.577
613.927	41095.750
614.055	41332.596
614.183	41276.500
614.312	41400.029
614.440	41663.240
614.568	41642.471
614.696	41753.010
614.824	41757.558
614.952	41972.577
615.080	42027.423
615.208	42280.298
615.337	42342.990
615.465	42308.885
615.593	42572.587
615.721	42538.135
615.849	42684.779
615.977	42778.442
616.105	42813.481
616.233	42999.567
616.362	43249.846
616.490	43251.029
616.618	43337.077
616.746	43462.481
616.874	43603.875
617.002	43687.894
617.130	43730.577
617.258	43776.385
617.387	43844.721
617.515	44017.029
617.643	43989.587
617.771	44151.894
617.899	44193.663
618.027	44224.644
618.155	44339.596
618.283	44401.481
618.412	44418.442
618.540	44632.154
618.668	44732.404
618.796	44805.423
618.924	44769.529
619.052	44872.365
619.180	44800.615
619.308	44802.019
619.437	44939.481
619.565	44968.221
619.693	44982.529
619.821	45066.173
619.949	45121.029
620.077	45206.587
620.205	45202.923
620.333	45257.010
620.462	45338.375
620.590	45311.856
620.718	45364.298
620.846	45461.654
620.974	45411.913
621.102	45540.163
621.230	45530.981
621.358	45675.904
621.487	45597.337
621.615	45670.029
621.743	45596.971
621.871	45654.394
621.999	45700.885
622.127	45692.077
622.255	45705.577
622.383	45691.750
622.512	45759.788
622.640	45721.827
622.768	45900.192
622.896	45884.702
623.024	45944.471
623.152	45999.087
623.280	46071.712
623.408	46049.856
623.537	46117.231
623.665	46079.558
623.793	46169.308
623.921	46131.510
624.049	46216.615
624.177	46218.394
624.305	46250.990
624.433	46246.183
624.562	46355.058
624.690	46415.538
624.818	46312.721
624.946	46293.981
625.074	46341.788
625.202	46417.385
625.330	46422.000
625.458	46578.750
625.587	46550.317
625.715	46596.625
625.843	46627.144
625.971	46776.510
626.099	46758.019
626.227	46761.712
626.355	46731.981
626.483	46859.548
626.612	46809.077
626.740	47095.106
626.868	47006.673
626.996	47065.962
627.124	47091.635
627.252	47097.308
627.380	47242.587
627.508	47197.096
627.637	47305.433
627.765	47478.212
627.893	47541.913
628.021	47500.288
628.149	47512.298
628.277	47622.452
628.405	47646.663
628.533	47722.135
628.662	47832.433
628.790	47922.510
628.918	47982.654
629.046	48183.760
629.174	48086.269
629.302	48184.635
629.430	48277.990
629.558	48382.731
629.687	48404.346
629.815	48503.154
629.943	48712.587
630.071	48657.856
630.199	48831.394
630.327	48937.029
630.455	48953.269
630.583	49045.096
630.712	49075.019
630.840	49251.788
630.968	49274.817
631.096	49398.808
631.224	49516.000
631.352	49641.654
631.480	49610.673
631.608	49866.481
631.737	49776.750
631.865	49944.798
631.993	50003.606
632.121	50157.000
632.249	50181.356
632.377	50133.577
632.505	50259.471
632.633	50502.817
632.762	50342.067
632.890	50481.385
633.018	50513.760
633.146	50522.019
633.274	50532.875
633.402	50599.173
633.530	50605.644
633.658	50690.490
633.787	50728.298
633.915	50725.231
634.043	50790.885
634.171	50836.000
634.299	50898.750
634.427	50908.519
634.555	51070.125
634.683	50970.115
634.812	50940.529
634.940	50878.327
635.068	50904.183
635.196	50894.433
635.324	50949.750
635.452	50876.942
635.580	51026.952
635.708	50858.413
635.837	50939.538
635.965	50831.510
636.093	50788.346
636.221	50822.490
636.349	50679.029
636.477	50743.231
636.605	50730.231
636.733	50648.817
636.862	50617.231
636.990	50599.471
637.118	50539.000
637.246	50468.212
637.374	50619.519
637.502	50388.548
637.630	50355.692
637.758	50338.154
637.887	50284.154
638.015	50362.760
638.143	50254.740
638.271	50151.279
638.399	50164.442
638.527	50038.442
638.655	50120.750
638.783	49988.192
638.912	50052.606
639.040	49956.837
639.168	49837.010
639.296	49879.298
639.424	49934.981
639.552	49816.404
639.680	49874.827
639.808	49739.606
639.937	49813.904
640.065	49835.404
640.193	49844.317
640.321	49929.183
640.449	49894.442
640.577	49854.779
640.705	49858.173
640.833	49802.529
640.962	49929.856
641.090	49847.500
641.218	49791.519
641.346	49983.452
641.474	49966.875
641.602	49977.856
641.730	50014.885
641.858	49935.096
641.987	50013.519
642.115	50219.587
642.243	50063.048
642.371	50218.625
642.499	49968.933
642.627	50255.567
642.755	50170.702
642.883	50237.106
643.012	50271.798
643.140	50338.827
643.268	50366.279
643.396	50412.279
643.524	50439.558
643.652	50473.606
643.780	50435.529
643.908	50509.538
644.037	50619.096
644.165	50667.029
644.293	50703.308
644.421	50546.721
644.549	50709.346
644.677	50687.375
644.805	50727.317
644.933	50664.538
645.062	50804.288
645.190	50959.106
645.318	50876.846
645.446	50807.740
645.574	50901.529
645.702	50837.356
645.830	50928.163
645.958	50779.827
646.087	50779.904
646.215	50798.462
646.343	50886.462
646.471	51033.865
646.599	50803.048
646.727	50841.635
646.855	50870.087
646.983	50808.712
647.112	50876.202
647.240	50777.144
647.368	50906.442
647.496	50870.269
647.624	50757.913
647.752	50687.635
647.880	50772.317
648.008	50670.673
648.137	50825.712
648.265	50733.327
648.393	50701.567
648.521	50646.923
648.649	50731.317
648.777	50614.519
648.905	50533.673
649.033	50500.260
649.162	50391.625
649.290	50322.154
649.418	50321.038
649.546	50460.904
649.674	50280.846
649.802	50118.433
649.930	50033.365
650.058	50086.798
650.187	50045.192
650.315	49934.894
650.443	49881.144
650.571	49663.750
650.699	49760.529
650.827	49654.606
650.955	49427.750
651.083	49597.837
651.212	49407.269
651.340	49386.635
651.468	49358.923
651.596	49204.760
651.724	49185.029
651.852	49130.712
651.980	49187.135
652.108	48965.962
652.237	48999.077
652.365	48839.327
652.493	48831.981
652.621	48754.154
652.749	48673.712
652.877	48607.683
653.005	48669.644
653.133	48539.933
653.262	48382.375
653.390	48319.529
653.518	48400.769
653.646	48222.183
653.774	48126.952
653.902	48118.596
654.030	48064.933
654.158	47974.029
654.287	47935.596
654.415	47813.981
654.543	47776.240
654.671	47765.404
654.799	47697.144
654.927	47576.625
655.055	47556.942
655.183	47470.481
655.312	47396.202
655.440	47360.337
655.568	47321.596
655.696	47239.087
655.824	47246.490
655.952	47146.154
656.080	46939.894
656.208	46980.221
656.337	46928.721
656.465	46994.779
656.593	46752.038
656.721	46884.000
656.849	46748.356
656.977	46486.606
657.105	46530.125
657.233	46473.673
657.362	46453.163
657.490	46457.894
657.618	46344.183
657.746	46313.077
657.874	46104.779
658.002	45964.163
658.130	45786.442
658.258	45730.779
658.387	45690.337
658.515	45662.154
658.643	45479.365
658.771	45560.538
658.899	45502.952
659.027	45464.029
659.155	45332.644
659.283	45316.423
659.412	45193.269
659.540	45162.144
659.668	45122.779
659.796	45128.904
659.924	45094.327
660.052	45189.279
660.180	45111.019
660.308	45155.356
660.437	45075.865
660.565	44946.865
660.693	44713.779
660.821	44739.038
660.949	44499.913
661.077	44531.644
661.205	44650.702
661.333	44508.423
661.462	44419.163
661.590	44353.221
661.718	44114.846
661.846	44197.942
661.974	44162.058
662.102	44064.375
662.230	43933.240
662.358	43812.394
662.487	43855.260
662.615	43873.769
662.743	43768.077
662.871	43741.462
662.999	43605.096
663.127	43451.442
663.255	43420.519
663.383	43510.740
663.512	43314.990
663.640	43270.038
663.768	43275.577
663.896	43226.846
664.024	43153.125
664.152	43098.548
664.280	43118.452
664.408	42942.587
664.537	42891.577
664.665	42870.529
664.793	42815.212
664.921	42713.519
665.049	42785.865
665.177	42677.452
665.305	42657.923
665.433	42590.250
665.562	42709.356
665.690	42498.500
665.818	42562.808
665.946	42321.327
666.074	42320.615
666.202	42272.413
666.330	42191.481
666.458	42275.913
666.587	42152.587
666.715	42070.154
666.843	41939.683
666.971	41976.596
667.099	41915.769
667.227	41947.048
667.355	41893.221
667.483	41805.846
667.612	41852.260
667.740	41688.413
667.868	41651.375
667.996	41624.019
668.124	41588.750
668.252	41622.798
668.380	41451.923
668.508	41540.538
668.637	41344.125
668.765	41245.808
668.893	41193.327
669.021	41129.394
669.149	41081.490
669.277	40982.971
669.405	41044.827
669.533	40959.500
669.662	40820.769
669.790	40712.077
669.918	40753.923
670.046	40797.087
670.174	40516.846
670.302	40411.962
670.430	40340.067
670.558	40316.913
670.687	40367.933
670.815	40202.500
670.943	40131.279
671.071	39960.817
671.199	39904.163
671.327	39812.000
671.455	39816.356
671.583	39712.577
671.712	39655.163
671.840	39550.462
671.968	39612.221
672.096	39503.356
672.224	39264.663
672.352	39218.048
672.480	39122.635
672.608	39069.154
672.737	38899.048
672.865	38814.702
672.993	38705.144
673.121	38618.635
673.249	38590.231
673.377	38412.904
673.505	38347.500
673.633	38334.615
673.762	38196.856
673.890	38106.135
674.018	38023.154
674.146	37918.538
674.274	37921.519
674.402	37787.019
674.530	37760.683
674.658	37539.510
674.787	37463.221
674.915	37528.260
675.043	37307.740
675.171	37138.413
675.299	37058.683
675.427	36993.779
675.555	36916.462
675.683	36834.298
675.812	36702.692
675.940	36625.490
676.068	36485.500
676.196	36456.683
676.324	36272.712
676.452	36225.317
676.580	36137.452
676.708	36014.923
676.837	35866.260
676.965	35898.817
677.093	35837.769
677.221	35645.663
677.349	35483.625
677.477	35487.904
677.605	35364.202
677.733	35202.760
677.862	35114.385
677.990	35087.346
678.118	35025.346
678.246	34883.413
678.374	34806.365
678.502	34717.135
678.630	34573.029
678.758	34498.212
678.887	34613.740
679.015	34278.163
679.143	34205.712
679.271	34150.125
679.399	34080.885
679.527	34013.865
679.655	33963.990
679.783	33829.635
679.912	33765.683
680.040	33802.990
680.168	33545.933
680.296	33460.231
680.424	33472.740
680.552	33324.298
680.680	33216.500
680.808	33160.202
680.937	33133.394
681.065	33110.394
681.193	32951.385
681.321	32829.885
681.449	32892.029
681.577	32718.750
681.705	32694.990
681.833	32620.202
681.962	32534.471
682.090	32448.048
682.218	32432.144
682.346	32303.452
682.474	32234.500
682.602	32203.538
682.730	32212.471
682.858	32065.154
682.987	32034.452
683.115	32010.337
683.243	31885.606
683.371	31950.298
683.499	31785.404
683.627	31752.048
683.755	31679.442
683.883	31641.548
684.012	31539.452
684.140	31477.731
684.268	31485.433
684.396	31440.019
684.524	31409.519
684.652	31318.865
684.780	31273.769
684.908	31167.212
685.037	31183.625
685.165	31120.712
685.293	31106.038
685.421	31054.308
685.549	30992.548
685.677	30896.894
685.805	30877.019
685.933	30743.875
686.062	30697.029
686.190	30605.808
686.318	30591.731
686.446	30535.587
686.574	30480.885
686.702	30461.038
686.830	30350.212
686.958	30353.635
687.087	30273.144
687.215	30253.981
687.343	30147.183
687.471	30274.240
687.599	29994.875
687.727	30015.356
687.855	29845.885
687.983	29787.856
688.112	29792.923
688.240	29772.240
688.368	29705.413
688.496	29615.875
688.624	29519.577
688.752	29601.500
688.880	29399.337
689.008	29324.433
689.137	29295.250
689.265	29202.077
689.393	29090.337
689.521	29046.163
689.649	29084.558
689.777	28985.144
689.905	28992.010
690.033	28742.317
690.162	28718.894
690.290	28763.240
690.418	28608.500
690.546	28597.538
690.674	28522.481
690.802	28475.163
690.930	28406.048
691.058	28321.587
691.187	28213.625
691.315	28125.846
691.443	28016.837
691.571	28009.981
691.699	27891.452
691.827	27852.202
691.955	27736.269
692.083	27692.163
692.212	27599.452
692.340	27580.904
692.468	27552.308
692.596	27459.990
692.724	27328.394
692.852	27341.837
692.980	27244.135
693.108	27203.087
693.237	26992.087
693.365	26909.317
693.493	26892.433
693.621	26795.202
693.749	26720.327
693.877	26667.452
694.005	26514.125
694.133	26400.750
694.262	26391.990
694.390	26234.577
694.518	26176.135
694.646	26118.288
694.774	26014.625
694.902	25946.942
695.030	25859.558
695.158	25758.712
695.287	25699.077
695.415	25637.750
695.543	25541.606
695.671	25392.971
695.799	25470.490
695.927	25255.577
696.055	25227.192
696.183	25114.010
696.312	25203.702
696.440	25004.385
696.568	24997.827
696.696	24721.577
696.824	24631.048
696.952	24552.183
697.080	24515.510
697.208	24386.308
697.337	24328.346
697.465	24233.433
697.593	24174.010
697.721	24201.135
697.849	24028.010
697.977	23939.683
698.105	23936.327
698.233	23823.615
698.362	23670.375
698.490	23811.779
698.618	23557.702
698.746	23492.125
698.874	23477.308
699.002	23355.990
699.130	23341.904
699.258	23147.683
699.387	23099.375
699.515	23050.683
699.643	23017.510
699.771	22995.538
699.899	22809.154
700.027	22742.260
700.155	22717.269
700.283	22557.288
700.412	22501.096
700.540	22451.971
700.668	22465.971
700.796	22259.221
700.924	22217.760
701.052	22132.875
701.180	22123.038
701.308	21928.452
701.437	21893.481
701.565	21833.606
701.693	21785.096
701.821	21813.125
701.949	21613.356
702.077	21556.212
702.205	21568.125
702.333	21386.913
702.462	21325.904
702.590	21258.817
702.718	21165.644
702.846	21188.125
702.974	21004.298
703.102	20892.865
703.230	20884.010
703.358	20707.981
703.487	20662.577
703.615	20604.798
703.743	20489.077
703.871	20459.548
703.999	20354.962
704.127	20282.019
704.255	20193.577
704.383	20149.981
704.512	20100.269
704.640	20015.971
704.768	19983.606
704.896	19804.279
705.024	19675.625
705.152	19653.423
705.280	19614.385
705.408	19471.375
705.537	19376.048
705.665	19314.250
705.793	19238.827
705.921	19188.885
706.049	19041.010
706.177	18987.837
706.305	18906.221
706.433	18845.808
706.562	18771.288
706.690	18693.865
706.818	18591.721
706.946	18529.500
707.074	18385.163
707.202	18317.288
707.330	18265.077
707.458	18211.375
707.587	18127.048
707.715	18059.769
707.843	18018.375
707.971	17982.625
708.099	17821.587
708.227	17775.837
708.355	17663.856
708.483	17606.760
708.612	17532.721
708.740	17427.317
708.868	17371.231
708.996	17379.567
709.124	17321.337
709.252	17186.673
709.380	17181.750
709.508	17060.144
709.637	17020.442
709.765	16947.029
709.893	16905.942
710.021	16784.192
710.149	16842.173
710.277	16647.471
710.405	16615.702
710.533	16559.529
710.662	16462.702
710.790	16538.510
710.918	16325.019
711.046	16311.923
711.174	16222.702
711.302	16215.702
711.430	16133.288
711.558	16118.837
711.687	15994.663
711.815	15972.875
711.943	15859.740
712.071	15799.115
712.199	15804.577
712.327	15830.702
712.455	15583.413
712.583	15746.942
712.712	15551.837
712.840	15523.846
712.968	15397.058
713.096	15337.250
713.224	15272.606
713.352	15195.183
713.480	15152.587
713.608	15095.423
713.737	15019.519
713.865	15037.279
713.993	14919.548
714.121	14914.615
714.249	14809.644
714.377	14757.183
714.505	14671.625
714.633	14657.538
714.762	14562.462
714.890	14553.308
715.018	14459.510
715.146	14475.712
715.274	14345.779
715.402	14368.625
715.530	14229.154
715.658	14200.058
715.787	14178.394
715.915	14174.952
716.043	14047.135
716.171	14108.423
716.299	13884.106
716.427	13943.038
716.555	13815.058
716.683	13747.913
716.812	13729.000
716.940	13634.327
717.068	13563.635
717.196	13699.692
717.324	13499.212
717.452	13441.183
717.580	13451.144
717.708	13287.192
717.837	13284.327
717.965	13209.808
718.093	13162.865
718.221	13142.115
718.349	13146.606
718.477	12998.365
718.605	13042.298
718.733	12938.606
718.862	12912.260
718.990	12788.221
719.118	12791.144
719.246	12698.423
