70_100_90_Pol_at_750.00nm_cut_at_1179.00Y_01.dat
03.07.2023
10:46:55
cut middle at Y: 1179.00
top cursor: 1231 down cursor: 1127 mean of: 104 lines , 2560 datapoints
wavelength(nm)	intensity[arb. units]
585.996	12772.904
586.124	12533.510
586.252	12553.692
586.380	12582.048
586.508	12616.413
586.637	12723.558
586.765	12680.740
586.893	12717.077
587.021	12735.712
587.149	12750.673
587.277	12791.308
587.405	12785.990
587.533	12870.529
587.662	12897.356
587.790	12850.048
587.918	12846.731
588.046	12864.423
588.174	12892.692
588.302	12872.808
588.430	12869.798
588.558	12891.865
588.687	12914.385
588.815	12934.404
588.943	12916.817
589.071	12930.038
589.199	12920.567
589.327	12915.702
589.455	12989.106
589.583	12942.885
589.712	12964.135
589.840	12927.500
589.968	12937.962
590.096	12964.894
590.224	12929.692
590.352	13038.077
590.480	12962.990
590.608	12928.173
590.737	12953.990
590.865	13066.356
590.993	12957.644
591.121	12975.933
591.249	12982.125
591.377	12999.442
591.505	13095.644
591.633	13001.106
591.762	13014.635
591.890	13012.404
592.018	13134.077
592.146	13094.029
592.274	13034.202
592.402	13015.635
592.530	13255.173
592.658	13136.904
592.787	13165.385
592.915	13188.231
593.043	13136.471
593.171	13211.433
593.299	13197.827
593.427	13213.942
593.555	13242.587
593.683	13259.663
593.812	13254.423
593.940	13287.202
594.068	13308.663
594.196	13330.654
594.324	13383.385
594.452	13583.663
594.580	13471.615
594.708	13508.260
594.837	13531.962
594.965	13610.163
595.093	13586.010
595.221	13690.740
595.349	13680.144
595.477	13678.337
595.605	13743.827
595.733	13750.587
595.862	13796.192
595.990	13793.038
596.118	13855.625
596.246	13905.154
596.374	13857.510
596.502	13907.231
596.630	13934.885
596.758	13946.827
596.887	13951.404
597.015	14002.567
597.143	14000.077
597.271	14005.673
597.399	14091.087
597.527	14059.490
597.655	14085.269
597.783	14072.308
597.912	14088.038
598.040	14113.010
598.168	14092.971
598.296	14054.712
598.424	14224.798
598.552	14106.788
598.680	14122.087
598.808	14158.692
598.937	14126.606
599.065	14132.885
599.193	14176.933
599.321	14182.192
599.449	14152.125
599.577	14171.288
599.705	14173.837
599.833	14141.731
599.962	14095.760
600.090	14174.875
600.218	14156.385
600.346	14202.692
600.474	14131.442
600.602	14112.990
600.730	14143.702
600.858	14226.250
600.987	14263.712
601.115	14210.606
601.243	14314.337
601.371	14312.298
601.499	14286.115
601.627	14316.904
601.755	14302.587
601.883	14386.404
602.012	14307.433
602.140	14362.971
602.268	14392.394
602.396	14545.356
602.524	14537.510
602.652	14582.923
602.780	14576.971
602.908	14634.952
603.037	14715.673
603.165	14705.212
603.293	14769.712
603.421	14790.096
603.549	14808.567
603.677	14908.702
603.805	14890.163
603.933	14935.779
604.062	15044.567
604.190	15110.990
604.318	15142.327
604.446	15134.837
604.574	15277.144
604.702	15298.769
604.830	15273.077
604.958	15333.231
605.087	15429.087
605.215	15553.654
605.343	15575.019
605.471	15602.058
605.599	15650.558
605.727	15775.337
605.855	15711.721
605.983	15815.173
606.112	15842.346
606.240	15815.250
606.368	15870.952
606.496	15914.327
606.624	16007.894
606.752	15976.317
606.880	16080.356
607.008	16079.558
607.137	16096.683
607.265	16165.510
607.393	16159.923
607.521	16260.087
607.649	16246.433
607.777	16242.144
607.905	16291.048
608.033	16244.365
608.162	16282.240
608.290	16258.500
608.418	16375.769
608.546	16364.192
608.674	16389.000
608.802	16346.125
608.930	16359.317
609.058	16372.500
609.187	16376.875
609.315	16383.433
609.443	16385.462
609.571	16473.490
609.699	16388.231
609.827	16457.163
609.955	16446.587
610.083	16428.904
610.212	16412.240
610.340	16388.375
610.468	16419.163
610.596	16448.885
610.724	16427.481
610.852	16483.442
610.980	16492.510
611.108	16469.808
611.237	16509.615
611.365	16512.538
611.493	16504.779
611.621	16541.192
611.749	16555.865
611.877	16660.202
612.005	16601.827
612.133	16665.663
612.262	16692.673
612.390	16765.452
612.518	16770.663
612.646	16772.644
612.774	16833.673
612.902	16842.587
613.030	16904.394
613.158	16912.029
613.287	16971.462
613.415	16929.567
613.543	16973.019
613.671	16973.433
613.799	17050.817
613.927	17123.760
614.055	17216.519
614.183	17207.433
614.312	17230.125
614.440	17353.760
614.568	17341.038
614.696	17386.837
614.824	17439.731
614.952	17471.750
615.080	17489.048
615.208	17579.769
615.337	17689.231
615.465	17633.942
615.593	17738.519
615.721	17740.269
615.849	17866.269
615.977	17799.010
616.105	17909.846
616.233	17900.115
616.362	18029.510
616.490	18047.615
616.618	18151.240
616.746	18242.615
616.874	18251.894
617.002	18250.510
617.130	18313.308
617.258	18319.019
617.387	18384.048
617.515	18417.875
617.643	18425.125
617.771	18558.413
617.899	18527.404
618.027	18612.288
618.155	18665.567
618.283	18632.212
618.412	18668.375
618.540	18806.962
618.668	18764.548
618.796	18772.798
618.924	18827.971
619.052	18869.981
619.180	18873.125
619.308	18880.279
619.437	18895.404
619.565	18946.654
619.693	18962.106
619.821	19034.558
619.949	19016.019
620.077	19032.577
620.205	19106.500
620.333	19110.962
620.462	19112.721
620.590	19175.500
620.718	19186.625
620.846	19223.423
620.974	19225.990
621.102	19267.433
621.230	19305.058
621.358	19443.279
621.487	19309.423
621.615	19396.538
621.743	19329.692
621.871	19408.712
621.999	19305.192
622.127	19372.231
622.255	19418.856
622.383	19424.865
622.512	19403.279
622.640	19447.106
622.768	19525.212
622.896	19574.875
623.024	19551.481
623.152	19559.779
623.280	19664.654
623.408	19613.779
623.537	19659.721
623.665	19643.731
623.793	19740.962
623.921	19675.260
624.049	19732.702
624.177	19728.587
624.305	19773.750
624.433	19801.798
624.562	19864.942
624.690	19944.913
624.818	19842.240
624.946	19826.462
625.074	19869.615
625.202	19863.577
625.330	19911.125
625.458	19992.923
625.587	19930.962
625.715	20027.048
625.843	20000.471
625.971	20097.212
626.099	20088.644
626.227	20089.654
626.355	20102.087
626.483	20146.558
626.612	20122.673
626.740	20224.827
626.868	20213.875
626.996	20287.673
627.124	20269.452
627.252	20292.115
627.380	20386.740
627.508	20322.635
627.637	20405.548
627.765	20436.798
627.893	20470.683
628.021	20586.385
628.149	20522.038
628.277	20591.856
628.405	20622.404
628.533	20599.125
628.662	20673.837
628.790	20786.404
628.918	20694.923
629.046	20894.538
629.174	20791.365
629.302	20837.875
629.430	20851.865
629.558	20941.644
629.687	20908.385
629.815	20976.529
629.943	21119.721
630.071	21071.212
630.199	21134.058
630.327	21214.538
630.455	21200.712
630.583	21275.981
630.712	21299.173
630.840	21375.269
630.968	21338.548
631.096	21408.394
631.224	21408.817
631.352	21632.471
631.480	21540.308
631.608	21727.173
631.737	21574.519
631.865	21739.067
631.993	21719.962
632.121	21927.404
632.249	21804.798
632.377	21780.019
632.505	21850.923
632.633	21929.856
632.762	21871.163
632.890	21914.702
633.018	21933.740
633.146	21988.337
633.274	21997.875
633.402	22075.615
633.530	22054.596
633.658	22092.269
633.787	22133.827
633.915	22119.740
634.043	22175.202
634.171	22178.212
634.299	22158.154
634.427	22188.558
634.555	22415.587
634.683	22257.413
634.812	22235.654
634.940	22232.596
635.068	22248.683
635.196	22226.346
635.324	22263.173
635.452	22257.548
635.580	22333.625
635.708	22254.519
635.837	22237.837
635.965	22257.327
636.093	22263.615
636.221	22245.077
636.349	22206.038
636.477	22170.250
636.605	22241.692
636.733	22173.298
636.862	22228.558
636.990	22186.673
637.118	22194.058
637.246	22083.894
637.374	22291.183
637.502	22074.673
637.630	22112.471
637.758	22073.673
637.887	22051.481
638.015	22171.519
638.143	22074.317
638.271	21967.019
638.399	22018.529
638.527	21972.837
638.655	21984.442
638.783	22019.558
638.912	22016.279
639.040	21947.250
639.168	21877.615
639.296	21904.779
639.424	22010.404
639.552	21881.163
639.680	22009.519
639.808	21946.981
639.937	21931.240
640.065	21852.577
640.193	21938.413
640.321	22027.490
640.449	21970.702
640.577	21930.635
640.705	21968.712
640.833	21976.788
640.962	22051.000
641.090	21960.308
641.218	21956.644
641.346	22050.433
641.474	22025.000
641.602	22033.779
641.730	22042.808
641.858	22009.462
641.987	22074.942
642.115	22247.894
642.243	22127.942
642.371	22281.798
642.499	22106.548
642.627	22236.423
642.755	22173.154
642.883	22186.202
643.012	22210.673
643.140	22297.356
643.268	22323.279
643.396	22246.125
643.524	22327.385
643.652	22402.202
643.780	22332.288
643.908	22328.356
644.037	22430.923
644.165	22458.952
644.293	22577.788
644.421	22386.817
644.549	22490.625
644.677	22543.038
644.805	22505.038
644.933	22509.260
645.062	22572.154
645.190	22700.567
645.318	22554.981
645.446	22534.500
645.574	22527.404
645.702	22590.269
645.830	22572.769
645.958	22499.048
646.087	22575.962
646.215	22543.327
646.343	22568.587
646.471	22763.221
646.599	22602.567
646.727	22551.837
646.855	22559.019
646.983	22558.788
647.112	22625.442
647.240	22583.952
647.368	22630.933
647.496	22584.875
647.624	22528.000
647.752	22615.548
647.880	22516.010
648.008	22544.981
648.137	22506.788
648.265	22481.692
648.393	22574.663
648.521	22495.087
648.649	22642.029
648.777	22507.769
648.905	22476.817
649.033	22518.327
649.162	22379.635
649.290	22313.135
649.418	22325.644
649.546	22441.558
649.674	22310.260
649.802	22231.404
649.930	22232.644
650.058	22174.260
650.187	22219.615
650.315	22143.750
650.443	22158.308
650.571	22031.913
650.699	22067.673
650.827	22020.240
650.955	22003.135
651.083	21991.933
651.212	21971.221
651.340	21938.423
651.468	21845.683
651.596	21845.731
651.724	21827.279
651.852	21794.779
651.980	21811.673
652.108	21717.615
652.237	21672.500
652.365	21689.163
652.493	21604.029
652.621	21557.038
652.749	21564.269
652.877	21546.087
653.005	21494.692
653.133	21449.173
653.262	21406.173
653.390	21375.712
653.518	21495.404
653.646	21346.846
653.774	21278.894
653.902	21336.038
654.030	21244.529
654.158	21174.490
654.287	21201.779
654.415	21117.615
654.543	21123.606
654.671	21067.712
654.799	21024.538
654.927	20973.923
655.055	20926.615
655.183	20971.875
655.312	20915.596
655.440	20859.587
655.568	20852.375
655.696	20818.644
655.824	20837.740
655.952	20738.462
656.080	20697.471
656.208	20722.298
656.337	20715.231
656.465	20796.163
656.593	20600.481
656.721	20584.135
656.849	20602.692
656.977	20441.490
657.105	20402.115
657.233	20410.692
657.362	20452.856
657.490	20426.115
657.618	20353.337
657.746	20339.683
657.874	20239.413
658.002	20165.500
658.130	20130.615
658.258	20110.923
658.387	20056.279
658.515	20006.875
658.643	20005.279
658.771	20058.221
658.899	19939.144
659.027	19939.933
659.155	19880.269
659.283	19831.740
659.412	19842.317
659.540	19806.356
659.668	19764.837
659.796	19858.990
659.924	19741.837
660.052	19829.115
660.180	19761.308
660.308	19738.125
660.437	19732.798
660.565	19630.327
660.693	19554.558
660.821	19675.721
660.949	19494.635
661.077	19469.894
661.205	19593.183
661.333	19429.837
661.462	19414.442
661.590	19443.865
661.718	19297.250
661.846	19305.404
661.974	19316.933
662.102	19266.087
662.230	19229.587
662.358	19117.346
662.487	19170.625
662.615	19099.952
662.743	19084.202
662.871	19059.413
662.999	18975.471
663.127	18978.125
663.255	18898.077
663.383	19071.288
663.512	18845.923
663.640	18858.452
663.768	18837.529
663.896	18794.615
664.024	18780.442
664.152	18747.202
664.280	18757.327
664.408	18663.192
664.537	18641.615
664.665	18634.808
664.793	18607.558
664.921	18577.548
665.049	18596.442
665.177	18488.192
665.305	18516.250
665.433	18506.048
665.562	18590.212
665.690	18439.654
665.818	18555.577
665.946	18338.846
666.074	18337.683
666.202	18341.529
666.330	18244.452
666.458	18574.433
666.587	18227.740
666.715	18196.856
666.843	18144.423
666.971	18162.856
667.099	18192.683
667.227	18172.904
667.355	18143.856
667.483	18040.692
667.612	18050.740
667.740	18033.298
667.868	17990.365
667.996	17937.327
668.124	18018.202
668.252	18013.058
668.380	17861.721
668.508	17870.019
668.637	17834.529
668.765	17819.019
668.893	17782.269
669.021	17705.385
669.149	17703.192
669.277	17657.894
669.405	17716.375
669.533	17642.048
669.662	17572.663
669.790	17514.260
669.918	17534.337
670.046	17601.577
670.174	17366.808
670.302	17395.221
670.430	17309.750
670.558	17360.558
670.687	17462.596
670.815	17196.577
670.943	17221.202
671.071	17108.558
671.199	17064.875
671.327	17082.212
671.455	17064.538
671.583	16977.712
671.712	16944.990
671.840	16896.298
671.968	17034.087
672.096	16962.538
672.224	16749.096
672.352	16724.971
672.480	16672.952
672.608	16642.490
672.737	16566.375
672.865	16518.106
672.993	16495.596
673.121	16447.942
673.249	16371.106
673.377	16322.750
673.505	16271.779
673.633	16299.587
673.762	16203.462
673.890	16181.019
674.018	16151.788
674.146	16061.462
674.274	16023.173
674.402	16038.529
674.530	15941.106
674.658	15835.135
674.787	15826.885
674.915	15914.721
675.043	15772.740
675.171	15700.125
675.299	15590.894
675.427	15534.423
675.555	15545.375
675.683	15556.625
675.812	15448.048
675.940	15387.125
676.068	15323.106
676.196	15355.865
676.324	15215.067
676.452	15175.702
676.580	15078.317
676.708	15072.125
676.837	14997.606
676.965	15063.442
677.093	15118.125
677.221	14962.462
677.349	14782.038
677.477	14878.423
677.605	14732.721
677.733	14680.577
677.862	14689.538
677.990	14612.010
678.118	14631.365
678.246	14565.048
678.374	14548.933
678.502	14409.615
678.630	14342.000
678.758	14340.663
678.887	14467.519
679.015	14234.202
679.143	14172.077
679.271	14122.288
679.399	14095.462
679.527	14098.115
679.655	14083.865
679.783	13937.635
679.912	13878.250
680.040	14047.692
680.168	13842.394
680.296	13831.692
680.424	13807.731
680.552	13714.385
680.680	13661.442
680.808	13629.625
680.937	13564.231
681.065	13602.885
681.193	13507.385
681.321	13429.779
681.449	13483.212
681.577	13426.654
681.705	13382.385
681.833	13357.615
681.962	13305.942
682.090	13260.240
682.218	13247.644
682.346	13239.750
682.474	13151.788
682.602	13139.163
682.730	13165.192
682.858	13026.481
682.987	13029.894
683.115	13030.462
683.243	12965.471
683.371	12955.808
683.499	12893.163
683.627	12904.337
683.755	12843.538
683.883	12791.635
684.012	12793.731
684.140	12752.317
684.268	12706.875
684.396	12757.760
684.524	12680.683
684.652	12694.567
684.780	12658.885
684.908	12625.192
685.037	12610.721
685.165	12572.115
685.293	12598.510
685.421	12531.510
685.549	12505.308
685.677	12413.615
685.805	12471.346
685.933	12368.875
686.062	12366.442
686.190	12311.490
686.318	12310.375
686.446	12199.490
686.574	12198.615
686.702	12260.962
686.830	12155.192
686.958	12182.538
687.087	12099.115
687.215	12096.058
687.343	12065.038
687.471	12202.587
687.599	11917.894
687.727	11912.163
687.855	11887.144
687.983	11858.779
688.112	11909.096
688.240	11821.750
688.368	11857.654
688.496	11757.519
688.624	11699.942
688.752	11832.356
688.880	11690.644
689.008	11628.163
689.137	11612.452
689.265	11538.663
689.393	11541.308
689.521	11480.356
689.649	11568.212
689.777	11464.606
689.905	11483.327
690.033	11372.394
690.162	11335.702
690.290	11337.394
690.418	11266.654
690.546	11282.385
690.674	11243.846
690.802	11237.413
690.930	11165.596
691.058	11134.269
691.187	11052.298
691.315	11059.558
691.443	10992.260
691.571	10970.673
691.699	10873.567
691.827	10861.144
691.955	10878.288
692.083	10807.067
692.212	10803.125
692.340	10757.058
692.468	10763.913
692.596	10738.538
692.724	10625.106
692.852	10672.971
692.980	10607.577
693.108	10644.337
693.237	10491.452
693.365	10443.837
693.493	10413.798
693.621	10391.654
693.749	10332.067
693.877	10366.529
694.005	10275.231
694.133	10213.673
694.262	10279.240
694.390	10112.106
694.518	10087.721
694.646	10098.683
694.774	10013.952
694.902	9978.077
695.030	9985.846
695.158	9882.375
695.287	9916.048
695.415	9866.510
695.543	9817.846
695.671	9743.413
695.799	9846.769
695.927	9709.856
696.055	9698.952
696.183	9583.500
696.312	9779.827
696.440	9558.413
696.568	9591.462
696.696	9444.990
696.824	9415.885
696.952	9362.096
697.080	9391.125
697.208	9280.010
697.337	9268.337
697.465	9219.769
697.593	9168.875
697.721	9296.769
697.849	9092.904
697.977	9132.462
698.105	9159.904
698.233	9076.471
698.362	8968.856
698.490	9065.231
698.618	8892.952
698.746	8867.644
698.874	8924.087
699.002	8832.519
699.130	8809.673
699.258	8755.279
699.387	8708.202
699.515	8705.423
699.643	8672.125
699.771	8727.750
699.899	8573.981
700.027	8533.337
700.155	8567.490
700.283	8416.327
700.412	8421.231
700.540	8450.048
700.668	8441.240
700.796	8338.115
700.924	8317.327
701.052	8320.462
701.180	8282.702
701.308	8181.798
701.437	8121.712
701.565	8111.663
701.693	8114.279
701.821	8279.154
701.949	8007.731
702.077	7998.154
702.205	8048.000
702.333	7925.798
702.462	7882.548
702.590	7951.260
702.718	7783.856
702.846	7951.260
702.974	7743.990
703.102	7716.442
703.230	7718.202
703.358	7635.221
703.487	7601.135
703.615	7580.346
703.743	7524.087
703.871	7513.615
703.999	7472.269
704.127	7444.327
704.255	7390.375
704.383	7422.788
704.512	7409.529
704.640	7378.394
704.768	7380.048
704.896	7253.048
705.024	7156.010
705.152	7182.490
705.280	7202.346
705.408	7094.538
705.537	7051.904
705.665	7042.731
705.793	6984.346
705.921	6981.337
706.049	6905.654
706.177	6930.875
706.305	6867.442
706.433	6870.856
706.562	6844.365
706.690	6808.615
706.818	6775.904
706.946	6690.587
707.074	6676.913
707.202	6624.875
707.330	6612.394
707.458	6572.904
707.587	6521.538
707.715	6543.740
707.843	6538.048
707.971	6525.875
708.099	6428.712
708.227	6364.856
708.355	6367.904
708.483	6334.952
708.612	6318.856
708.740	6274.404
708.868	6234.779
708.996	6292.317
709.124	6266.885
709.252	6192.904
709.380	6189.625
709.508	6116.846
709.637	6123.394
709.765	6087.596
709.893	6118.067
710.021	5996.240
710.149	6110.798
710.277	5945.048
710.405	5935.981
710.533	5910.433
710.662	5877.423
710.790	6004.413
710.918	5823.865
711.046	5859.635
711.174	5775.413
711.302	5813.240
711.430	5773.423
711.558	5775.577
711.687	5706.856
711.815	5663.577
711.943	5621.087
712.071	5640.740
712.199	5635.913
712.327	5658.846
712.455	5553.481
712.583	5707.933
712.712	5514.375
712.840	5553.808
712.968	5481.808
713.096	5442.490
713.224	5403.212
713.352	5404.154
713.480	5330.260
713.608	5329.837
713.737	5285.394
713.865	5341.471
713.993	5269.038
714.121	5275.423
714.249	5194.346
714.377	5188.163
714.505	5166.846
714.633	5177.385
714.762	5136.490
714.890	5115.106
715.018	5092.933
715.146	5131.654
715.274	5029.625
715.402	5035.260
715.530	5007.750
715.658	5028.000
715.787	4975.154
715.915	5032.538
716.043	4921.538
716.171	5065.135
716.299	4867.462
716.427	4944.625
716.555	4842.260
716.683	4818.933
716.812	4783.462
716.940	4761.875
717.068	4715.067
717.196	4885.356
717.324	4728.154
717.452	4684.635
717.580	4727.192
717.708	4620.202
717.837	4634.721
717.965	4637.740
718.093	4587.923
718.221	4617.962
718.349	4596.894
718.477	4504.212
718.605	4572.221
718.733	4498.635
718.862	4511.183
718.990	4407.731
719.118	4498.827
719.246	4423.788
719.374	4350.837
719.502	4396.692
719.630	4481.962
719.758	4303.346
719.887	4287.606
720.015	4334.808
720.143	4320.144
720.271	4207.519
720.399	4256.365
720.527	4201.240
720.655	4279.990
