70_130_wo_Pol_at_750.00nm_cut_at_1179.00Y_01.dat
03.07.2023
11:14:48
cut middle at Y: 1179.00
top cursor: 1231 down cursor: 1127 mean of: 104 lines , 2560 datapoints
wavelength(nm)	intensity[arb. units]
585.996	30264.712
586.124	29831.019
586.252	29798.827
586.380	29782.183
586.508	29937.635
586.637	30120.769
586.765	30160.404
586.893	30285.394
587.021	30245.731
587.149	30358.663
587.277	30391.221
587.405	30428.048
587.533	30594.192
587.662	30534.038
587.790	30552.394
587.918	30625.240
588.046	30527.115
588.174	30661.712
588.302	30673.692
588.430	30750.875
588.558	30702.865
588.687	30702.375
588.815	30785.798
588.943	30698.106
589.071	30809.096
589.199	30778.317
589.327	30773.962
589.455	30848.481
589.583	30817.500
589.712	30819.192
589.840	30798.125
589.968	30821.981
590.096	30856.558
590.224	30912.029
590.352	30993.740
590.480	30912.856
590.608	30844.990
590.737	30859.452
590.865	30857.442
590.993	30835.288
591.121	30859.538
591.249	30865.000
591.377	30924.798
591.505	30943.048
591.633	30899.856
591.762	30962.298
591.890	30955.721
592.018	31100.875
592.146	31073.212
592.274	31023.375
592.402	31066.846
592.530	31286.558
592.658	31160.654
592.787	31270.663
592.915	31316.500
593.043	31291.077
593.171	31405.856
593.299	31392.202
593.427	31362.971
593.555	31455.760
593.683	31540.567
593.812	31586.635
593.940	31645.510
594.068	31766.587
594.196	31774.529
594.324	31835.173
594.452	32063.769
594.580	32050.029
594.708	32160.577
594.837	32190.404
594.965	32307.115
595.093	32381.423
595.221	32533.981
595.349	32542.558
595.477	32606.635
595.605	32673.471
595.733	32672.048
595.862	32722.365
595.990	32773.298
596.118	32862.875
596.246	32986.827
596.374	32952.962
596.502	33053.404
596.630	33082.327
596.758	33077.673
596.887	33187.875
597.015	33225.192
597.143	33256.471
597.271	33227.144
597.399	33437.077
597.527	33310.385
597.655	33341.548
597.783	33381.529
597.912	33349.375
598.040	33451.240
598.168	33434.038
598.296	33341.962
598.424	33509.481
598.552	33343.433
598.680	33430.971
598.808	33562.096
598.937	33445.106
599.065	33392.962
599.193	33481.356
599.321	33495.356
599.449	33363.452
599.577	33420.087
599.705	33379.712
599.833	33374.942
599.962	33368.933
600.090	33414.423
600.218	33328.375
600.346	33401.952
600.474	33394.817
600.602	33360.740
600.730	33474.692
600.858	33488.087
600.987	33582.452
601.115	33504.673
601.243	33623.981
601.371	33667.394
601.499	33645.548
601.627	33790.538
601.755	33767.519
601.883	33818.048
602.012	33738.904
602.140	33862.298
602.268	33910.240
602.396	34095.885
602.524	34146.106
602.652	34355.587
602.780	34293.106
602.908	34409.615
603.037	34565.548
603.165	34630.144
603.293	34724.394
603.421	34809.769
603.549	34873.250
603.677	35040.000
603.805	35129.933
603.933	35245.125
604.062	35435.067
604.190	35543.067
604.318	35625.096
604.446	35650.673
604.574	35823.548
604.702	35829.942
604.830	35969.394
604.958	36009.683
605.087	36158.538
605.215	36404.087
605.343	36442.212
605.471	36574.115
605.599	36642.519
605.727	36766.500
605.855	36820.067
605.983	36956.298
606.112	37020.346
606.240	37066.163
606.368	37123.548
606.496	37157.394
606.624	37335.856
606.752	37302.260
606.880	37316.913
607.008	37401.702
607.137	37419.375
607.265	37522.981
607.393	37569.029
607.521	37597.750
607.649	37685.913
607.777	37581.279
607.905	37591.048
608.033	37667.817
608.162	37648.779
608.290	37678.673
608.418	37804.288
608.546	37782.894
608.674	37823.087
608.802	37719.010
608.930	37748.913
609.058	37716.308
609.187	37658.740
609.315	37670.231
609.443	37665.596
609.571	37805.798
609.699	37640.010
609.827	37706.385
609.955	37702.192
610.083	37621.317
610.212	37599.519
610.340	37505.490
610.468	37619.202
610.596	37603.740
610.724	37625.577
610.852	37709.567
610.980	37617.471
611.108	37618.827
611.237	37673.192
611.365	37670.875
611.493	37680.769
611.621	37673.808
611.749	37723.577
611.877	37841.587
612.005	37885.231
612.133	37902.548
612.262	37969.433
612.390	38033.106
612.518	38121.587
612.646	38102.413
612.774	38189.298
612.902	38219.663
613.030	38352.625
613.158	38275.163
613.287	38435.519
613.415	38435.404
613.543	38498.288
613.671	38533.490
613.799	38621.837
613.927	38695.779
614.055	38862.462
614.183	38836.856
614.312	38969.856
614.440	39120.519
614.568	39131.788
614.696	39286.202
614.824	39318.144
614.952	39432.606
615.080	39553.260
615.208	39636.067
615.337	39775.808
615.465	39689.413
615.593	39942.971
615.721	39993.317
615.849	40002.606
615.977	40111.567
616.105	40209.577
616.233	40294.192
616.362	40451.000
616.490	40424.308
616.618	40531.000
616.746	40714.760
616.874	40758.654
617.002	40885.077
617.130	40970.942
617.258	40895.490
617.387	41034.913
617.515	41139.625
617.643	41111.846
617.771	41285.125
617.899	41205.606
618.027	41297.923
618.155	41343.317
618.283	41402.269
618.412	41459.923
618.540	41551.221
618.668	41514.135
618.796	41604.279
618.924	41587.990
619.052	41647.548
619.180	41647.769
619.308	41560.577
619.437	41661.615
619.565	41654.500
619.693	41676.154
619.821	41745.490
619.949	41747.750
620.077	41779.683
620.205	41822.250
620.333	41830.471
620.462	41846.731
620.590	41844.356
620.718	41864.865
620.846	41958.702
620.974	41959.337
621.102	42004.865
621.230	41957.510
621.358	42047.788
621.487	41941.750
621.615	41992.971
621.743	41899.519
621.871	42017.952
621.999	41919.904
622.127	41894.260
622.255	41955.212
622.383	41917.529
622.512	41950.048
622.640	41938.173
622.768	42012.221
622.896	42012.875
623.024	41987.702
623.152	42012.327
623.280	42020.817
623.408	42037.462
623.537	42001.596
623.665	42032.894
623.793	42070.365
623.921	41993.587
624.049	42049.760
624.177	42053.221
624.305	42054.558
624.433	42014.606
624.562	42067.067
624.690	42094.173
624.818	41965.067
624.946	41994.837
625.074	42011.692
625.202	42012.875
625.330	41988.394
625.458	42163.337
625.587	42052.837
625.715	42171.327
625.843	42029.615
625.971	42193.038
626.099	42175.519
626.227	42180.817
626.355	42194.375
626.483	42251.385
626.612	42189.481
626.740	42357.596
626.868	42323.731
626.996	42397.990
627.124	42402.010
627.252	42322.894
627.380	42458.019
627.508	42388.125
627.637	42401.933
627.765	42630.673
627.893	42634.952
628.021	42555.192
628.149	42608.510
628.277	42647.644
628.405	42713.308
628.533	42781.471
628.662	42792.269
628.790	42879.615
628.918	42948.731
629.046	43070.144
629.174	43044.837
629.302	43097.308
629.430	43092.558
629.558	43226.837
629.687	43167.760
629.815	43353.673
629.943	43510.365
630.071	43443.260
630.199	43546.538
630.327	43617.740
630.455	43640.240
630.583	43710.394
630.712	43702.952
630.840	43878.760
630.968	43836.625
631.096	43996.019
631.224	43996.038
631.352	44032.721
631.480	44076.356
631.608	44352.308
631.737	44213.596
631.865	44225.760
631.993	44298.250
632.121	44464.000
632.249	44449.067
632.377	44378.096
632.505	44432.433
632.633	44661.846
632.762	44490.865
632.890	44507.587
633.018	44501.663
633.146	44540.433
633.274	44466.337
633.402	44533.413
633.530	44457.125
633.658	44529.981
633.787	44423.452
633.915	44556.750
634.043	44527.317
634.171	44591.125
634.299	44532.490
634.427	44517.240
634.555	44661.952
634.683	44538.096
634.812	44468.750
634.940	44340.317
635.068	44357.817
635.196	44343.317
635.324	44319.952
635.452	44280.308
635.580	44373.798
635.708	44208.702
635.837	44202.606
635.965	44097.038
636.093	43982.567
636.221	44017.462
636.349	43865.077
636.477	43882.981
636.605	43847.962
636.733	43770.596
636.862	43713.587
636.990	43664.019
637.118	43549.981
637.246	43465.981
637.374	43559.269
637.502	43311.442
637.630	43313.788
637.758	43221.721
637.887	43148.260
638.015	43248.327
638.143	43093.615
638.271	42987.413
638.399	43006.010
638.527	42890.240
638.655	42893.798
638.783	42727.500
638.912	42789.500
639.040	42693.404
639.168	42634.846
639.296	42615.865
639.424	42617.221
639.552	42532.952
639.680	42541.260
639.808	42475.817
639.937	42486.000
640.065	42488.356
640.193	42413.106
640.321	42474.692
640.449	42497.317
640.577	42433.413
640.705	42380.308
640.833	42322.615
640.962	42483.317
641.090	42315.019
641.218	42362.606
641.346	42424.317
641.474	42366.654
641.602	42408.240
641.730	42329.721
641.858	42291.692
641.987	42301.606
642.115	42504.750
642.243	42369.663
642.371	42511.779
642.499	42311.308
642.627	42433.923
642.755	42369.952
642.883	42407.981
643.012	42329.846
643.140	42420.365
643.268	42440.106
643.396	42432.125
643.524	42434.644
643.652	42490.933
643.780	42462.952
643.908	42505.558
644.037	42502.587
644.165	42485.529
644.293	42635.413
644.421	42411.875
644.549	42455.779
644.677	42507.337
644.805	42436.115
644.933	42309.971
645.062	42482.058
645.190	42581.288
645.318	42447.808
645.446	42426.606
645.574	42494.577
645.702	42398.452
645.830	42407.587
645.958	42300.702
646.087	42359.567
646.215	42266.394
646.343	42306.125
646.471	42450.067
646.599	42218.529
646.727	42220.510
646.855	42218.308
646.983	42156.577
647.112	42215.173
647.240	42070.413
647.368	42077.058
647.496	41977.337
647.624	41992.067
647.752	41993.337
647.880	41878.087
648.008	41869.423
648.137	41878.990
648.265	41883.288
648.393	41904.971
648.521	41697.500
648.649	41738.202
648.777	41611.433
648.905	41540.596
649.033	41536.096
649.162	41410.913
649.290	41271.481
649.418	41254.000
649.546	41313.712
649.674	41273.471
649.802	41060.212
649.930	41012.413
650.058	40977.135
650.187	40961.500
650.315	40890.356
650.443	40815.250
650.571	40596.029
650.699	40607.423
650.827	40527.192
650.955	40402.769
651.083	40456.827
651.212	40336.683
651.340	40275.452
651.468	40133.125
651.596	40007.337
651.724	40038.183
651.852	39920.471
651.980	39926.125
652.108	39686.519
652.237	39714.692
652.365	39558.548
652.493	39488.269
652.621	39432.462
652.749	39415.413
652.877	39351.837
653.005	39337.788
653.133	39202.000
653.262	39134.010
653.390	38976.519
653.518	39090.250
653.646	38911.173
653.774	38858.135
653.902	38923.327
654.030	38776.625
654.158	38638.308
654.287	38658.115
654.415	38502.990
654.543	38582.423
654.671	38468.375
654.799	38458.817
654.927	38306.279
655.055	38246.981
655.183	38158.481
655.312	38113.058
655.440	38062.673
655.568	37955.538
655.696	37966.683
655.824	37891.663
655.952	37792.865
656.080	37667.144
656.208	37591.702
656.337	37577.221
656.465	37658.365
656.593	37434.865
656.721	37451.923
656.849	37425.712
656.977	37165.231
657.105	37165.731
657.233	37143.913
657.362	37105.808
657.490	37029.087
657.618	36916.923
657.746	36841.490
657.874	36566.231
658.002	36519.856
658.130	36338.202
658.258	36309.596
658.387	36224.221
658.515	36153.442
658.643	36086.933
658.771	36076.087
658.899	35941.500
659.027	35914.558
659.155	35878.452
659.283	35721.740
659.412	35664.240
659.540	35626.202
659.668	35614.750
659.796	35639.913
659.924	35585.327
660.052	35630.183
660.180	35512.462
660.308	35474.894
660.437	35406.163
660.565	35221.327
660.693	35062.529
660.821	35096.462
660.949	34834.990
661.077	34934.692
661.205	35018.365
661.333	34796.635
661.462	34715.577
661.590	34713.298
661.718	34520.740
661.846	34520.750
661.974	34388.740
662.102	34307.221
662.230	34227.500
662.358	34127.885
662.487	34093.875
662.615	34081.952
662.743	33957.221
662.871	33922.163
662.999	33842.356
663.127	33759.433
663.255	33689.817
663.383	33753.683
663.512	33505.740
663.640	33532.375
663.768	33519.317
663.896	33352.923
664.024	33355.202
664.152	33307.673
664.280	33257.971
664.408	33076.346
664.537	33055.913
664.665	33041.375
664.793	33000.240
664.921	32957.240
665.049	32959.885
665.177	32825.548
665.305	32796.529
665.433	32713.087
665.562	32848.106
665.690	32673.798
665.818	32751.308
665.946	32505.740
666.074	32435.606
666.202	32368.548
666.330	32321.548
666.458	32527.721
666.587	32202.788
666.715	32193.327
666.843	32079.529
666.971	32013.231
667.099	32020.865
667.227	31973.087
667.355	31966.288
667.483	31842.971
667.612	31822.279
667.740	31709.106
667.868	31663.413
667.996	31605.596
668.124	31574.490
668.252	31602.462
668.380	31412.000
668.508	31417.798
668.637	31251.673
668.765	31251.779
668.893	31102.442
669.021	31089.760
669.149	31033.269
669.277	30882.663
669.405	31007.452
669.533	30905.740
669.662	30774.183
669.790	30676.452
669.918	30635.721
670.046	30668.019
670.174	30458.471
670.302	30395.000
670.430	30316.817
670.558	30277.721
670.687	30341.221
670.815	30086.548
670.943	30019.250
671.071	29914.769
671.199	29763.260
671.327	29750.625
671.455	29768.673
671.583	29653.481
671.712	29566.077
671.840	29524.635
671.968	29603.202
672.096	29448.433
672.224	29218.885
672.352	29135.923
672.480	28989.606
672.608	28996.981
672.737	28897.327
672.865	28826.663
672.993	28723.894
673.121	28561.106
673.249	28543.654
673.377	28403.952
673.505	28346.587
673.633	28372.500
673.762	28238.606
673.890	28125.183
674.018	28093.606
674.146	27963.183
674.274	27895.644
674.402	27871.096
674.530	27686.010
674.658	27579.654
674.787	27461.000
674.915	27550.038
675.043	27338.212
675.171	27254.327
675.299	27130.981
675.427	27019.577
675.555	26987.490
675.683	26867.856
675.812	26850.183
675.940	26683.712
676.068	26568.817
676.196	26559.760
676.324	26420.865
676.452	26370.673
676.580	26192.038
676.708	26146.385
676.837	26015.135
676.965	26065.298
677.093	26043.875
677.221	25791.462
677.349	25691.663
677.477	25702.894
677.605	25567.567
677.733	25476.904
677.862	25377.192
677.990	25400.240
678.118	25259.962
678.246	25114.923
678.374	25108.894
678.502	24965.750
678.630	24843.837
678.758	24811.519
678.887	24894.029
679.015	24623.587
679.143	24546.577
679.271	24462.817
679.399	24402.337
679.527	24310.413
679.655	24288.875
679.783	24176.183
679.912	24098.125
680.040	24214.308
680.168	23982.962
680.296	23899.558
680.424	23845.827
680.552	23732.856
680.680	23710.962
680.808	23562.288
680.937	23560.538
681.065	23502.548
681.193	23424.029
681.321	23261.712
681.449	23343.577
681.577	23236.865
681.705	23156.865
681.833	23104.481
681.962	22974.394
682.090	22931.596
682.218	22880.606
682.346	22815.519
682.474	22712.212
682.602	22708.385
682.730	22685.038
682.858	22553.942
682.987	22492.923
683.115	22474.846
683.243	22415.538
683.371	22350.365
683.499	22283.644
683.627	22241.625
683.755	22155.904
683.883	22140.779
684.012	22033.125
684.140	21952.981
684.268	21974.135
684.396	21947.894
684.524	21797.163
684.652	21811.567
684.780	21753.077
684.908	21652.875
685.037	21653.644
685.165	21555.048
685.293	21564.413
685.421	21469.885
685.549	21425.087
685.677	21338.519
685.805	21288.644
685.933	21226.096
686.062	21155.288
686.190	21062.346
686.318	21009.202
686.446	20957.019
686.574	20852.125
686.702	20892.231
686.830	20750.865
686.958	20799.740
687.087	20705.942
687.215	20651.221
687.343	20576.375
687.471	20649.519
687.599	20405.356
687.727	20379.231
687.855	20322.606
687.983	20229.548
688.112	20254.865
688.240	20122.279
688.368	20135.462
688.496	20054.019
688.624	19871.154
688.752	20024.048
688.880	19823.346
689.008	19752.067
689.137	19723.125
689.265	19613.115
689.393	19594.712
689.521	19519.587
689.649	19570.308
689.777	19438.625
689.905	19454.837
690.033	19296.962
690.162	19218.337
690.290	19274.115
690.418	19114.240
690.546	19084.298
690.674	19066.712
690.802	19022.087
690.930	18900.548
691.058	18845.144
691.187	18790.048
691.315	18680.654
691.443	18655.356
691.571	18655.462
691.699	18495.192
691.827	18426.423
691.955	18379.087
692.083	18350.577
692.212	18256.115
692.340	18240.010
692.468	18221.173
692.596	18162.135
692.724	18034.827
692.852	18053.673
692.980	17990.692
693.108	17971.269
693.237	17772.606
693.365	17724.096
693.493	17697.202
693.621	17640.933
693.749	17554.567
693.877	17529.846
694.005	17406.673
694.133	17289.279
694.262	17368.346
694.390	17150.135
694.518	17152.048
694.646	17090.375
694.774	17012.990
694.902	16953.952
695.030	16913.356
695.158	16818.721
695.287	16745.442
695.415	16731.452
695.543	16651.144
695.671	16540.010
695.799	16626.846
695.927	16450.346
696.055	16394.962
696.183	16277.096
696.312	16411.462
696.440	16234.154
696.568	16249.019
696.696	16035.394
696.824	15960.452
696.952	15928.058
697.080	15885.962
697.208	15785.654
697.337	15712.519
697.465	15694.269
697.593	15583.625
697.721	15684.740
697.849	15493.769
697.977	15478.240
698.105	15474.019
698.233	15369.952
698.362	15260.269
698.490	15335.990
698.618	15159.029
698.746	15126.740
698.874	15099.163
699.002	15010.865
699.130	15007.087
699.258	14866.587
699.387	14816.788
699.515	14822.087
699.643	14795.760
699.771	14768.433
699.899	14633.202
700.027	14526.990
700.155	14534.596
700.283	14416.654
700.412	14393.856
700.540	14381.250
700.668	14390.692
700.796	14188.538
700.924	14187.269
701.052	14178.192
701.180	14122.106
701.308	14004.010
701.437	13940.740
701.565	13922.452
701.693	13854.010
701.821	14004.606
701.949	13730.779
702.077	13682.375
702.205	13742.365
702.333	13596.663
702.462	13502.212
702.590	13542.760
702.718	13387.279
702.846	13526.433
702.974	13276.058
703.102	13239.365
703.230	13213.750
703.358	13103.962
703.487	13083.635
703.615	13056.644
703.743	12966.577
703.871	12931.202
703.999	12876.346
704.127	12766.135
704.255	12729.856
704.383	12679.558
704.512	12724.077
704.640	12623.096
704.768	12640.529
704.896	12480.288
705.024	12363.740
705.152	12354.019
705.280	12338.702
705.408	12242.654
705.537	12184.587
705.665	12142.788
705.793	12088.260
705.921	12038.952
706.049	11953.750
706.177	11946.452
706.305	11859.760
706.433	11825.462
706.562	11787.019
706.690	11779.587
706.818	11685.933
706.946	11610.510
707.074	11531.288
707.202	11485.000
707.330	11447.337
707.458	11390.346
707.587	11337.702
707.715	11316.654
707.843	11290.990
707.971	11283.769
708.099	11130.760
708.227	11119.942
708.355	11053.279
708.483	11002.260
708.612	11001.490
708.740	10901.654
708.868	10840.490
708.996	10894.385
709.124	10813.423
709.252	10749.529
709.380	10742.058
709.508	10649.250
709.637	10660.587
709.765	10598.087
709.893	10591.567
710.021	10474.692
710.149	10534.163
710.277	10360.644
710.405	10388.375
710.533	10324.740
710.662	10289.769
710.790	10392.990
710.918	10195.154
711.046	10193.375
711.174	10112.404
711.302	10144.115
711.430	10076.933
711.558	10074.769
711.687	9987.894
711.815	9924.279
711.943	9871.846
712.071	9853.038
712.199	9852.817
712.327	9891.058
712.455	9709.317
712.583	9896.875
712.712	9690.769
712.840	9697.471
712.968	9618.298
713.096	9578.654
713.224	9498.827
713.352	9506.067
713.480	9405.375
713.608	9394.942
713.737	9335.952
713.865	9385.788
713.993	9323.163
714.121	9304.971
714.249	9218.058
714.377	9176.769
714.505	9149.952
714.633	9127.750
714.762	9072.577
714.890	9026.567
715.018	8998.308
715.146	9047.288
715.274	8912.875
715.402	8907.615
715.530	8865.894
715.658	8891.567
715.787	8801.010
715.915	8865.135
716.043	8738.798
716.171	8836.433
716.299	8648.087
716.427	8690.356
716.555	8609.442
716.683	8584.029
716.812	8524.356
716.940	8483.558
717.068	8428.356
717.196	8614.558
717.324	8428.125
717.452	8396.019
717.580	8388.308
717.708	8294.731
717.837	8283.760
717.965	8288.106
718.093	8233.596
718.221	8234.096
718.349	8252.798
718.477	8126.471
718.605	8223.183
718.733	8073.615
718.862	8098.894
718.990	7979.471
719.118	8028.327
719.246	7933.808
719.374	7886.663
719.502	7911.654
719.630	7999.635
719.758	7814.942
