70_130_0_Pol_at_750.00nm_cut_at_1179.00Y_01.dat
03.07.2023
11:14:02
cut middle at Y: 1179.00
top cursor: 1231 down cursor: 1127 mean of: 104 lines , 2560 datapoints
wavelength(nm)	intensity[arb. units]
585.996	11798.327
586.124	11561.067
586.252	11581.240
586.380	11611.885
586.508	11608.692
586.637	11749.058
586.765	11692.615
586.893	11730.952
587.021	11793.212
587.149	11780.413
587.277	11839.837
587.405	11820.644
587.533	11885.346
587.662	11946.856
587.790	11877.769
587.918	11912.317
588.046	11860.827
588.174	11915.375
588.302	11886.067
588.430	11919.173
588.558	11959.740
588.687	11923.942
588.815	11940.567
588.943	11935.317
589.071	11935.875
589.199	11957.144
589.327	11928.529
589.455	12004.885
589.583	11928.058
589.712	11884.990
589.840	11903.288
589.968	11894.856
590.096	11950.990
590.224	11915.375
590.352	11997.625
590.480	11924.808
590.608	11944.731
590.737	11943.125
590.865	11986.875
590.993	11926.019
591.121	11932.837
591.249	11900.904
591.377	11944.183
591.505	12039.212
591.633	11938.173
591.762	11971.163
591.890	11974.308
592.018	12074.894
592.146	12000.625
592.274	11999.952
592.402	11995.125
592.530	12175.865
592.658	12118.096
592.787	12051.567
592.915	12129.606
593.043	12057.240
593.171	12152.923
593.299	12131.971
593.427	12126.808
593.555	12147.490
593.683	12166.288
593.812	12209.481
593.940	12206.221
594.068	12242.250
594.196	12253.462
594.324	12275.481
594.452	12454.462
594.580	12370.885
594.708	12425.913
594.837	12376.394
594.965	12514.606
595.093	12455.971
595.221	12570.875
595.349	12560.798
595.477	12572.827
595.605	12624.404
595.733	12609.462
595.862	12660.202
595.990	12658.817
596.118	12720.913
596.246	12770.644
596.374	12683.096
596.502	12734.990
596.630	12726.837
596.758	12761.635
596.887	12797.837
597.015	12817.817
597.143	12814.038
597.271	12798.500
597.399	12873.846
597.527	12832.606
597.655	12794.827
597.783	12873.962
597.912	12845.125
598.040	12866.923
598.168	12845.240
598.296	12831.942
598.424	12982.673
598.552	12836.788
598.680	12859.471
598.808	12980.923
598.937	12880.990
599.065	12870.519
599.193	12935.125
599.321	12962.269
599.449	12880.365
599.577	12883.519
599.705	12888.971
599.833	12874.279
599.962	12823.663
600.090	12879.731
600.218	12892.654
600.346	12859.462
600.474	12856.058
600.602	12848.904
600.730	12852.192
600.858	12871.394
600.987	12943.500
601.115	12894.538
601.243	12987.317
601.371	12967.173
601.499	13006.731
601.627	13004.625
601.755	12983.942
601.883	13022.337
602.012	12933.683
602.140	13079.048
602.268	13043.510
602.396	13198.663
602.524	13095.721
602.652	13177.750
602.780	13154.423
602.908	13212.712
603.037	13308.971
603.165	13281.221
603.293	13329.673
603.421	13357.000
603.549	13395.173
603.677	13417.654
603.805	13487.433
603.933	13499.337
604.062	13587.952
604.190	13635.356
604.318	13651.067
604.446	13672.067
604.574	13727.971
604.702	13780.356
604.830	13785.067
604.958	13789.298
605.087	13897.308
605.215	13932.183
605.343	14029.163
605.471	13984.231
605.599	14003.462
605.727	14130.308
605.855	14101.721
605.983	14160.567
606.112	14223.413
606.240	14170.904
606.368	14203.673
606.496	14203.558
606.624	14276.288
606.752	14249.413
606.880	14311.577
607.008	14288.029
607.137	14298.154
607.265	14388.471
607.393	14356.096
607.521	14427.548
607.649	14332.615
607.777	14331.904
607.905	14398.481
608.033	14332.702
608.162	14381.760
608.290	14340.683
608.418	14472.058
608.546	14471.712
608.674	14458.952
608.802	14398.154
608.930	14401.904
609.058	14357.510
609.187	14407.115
609.315	14361.538
609.443	14367.298
609.571	14505.029
609.699	14342.106
609.827	14399.952
609.955	14376.029
610.083	14327.096
610.212	14326.731
610.340	14290.308
610.468	14324.788
610.596	14292.798
610.724	14276.077
610.852	14333.183
610.980	14304.663
611.108	14239.971
611.237	14289.942
611.365	14327.019
611.493	14288.808
611.621	14283.337
611.749	14342.663
611.877	14380.029
612.005	14336.346
612.133	14399.500
612.262	14408.865
612.390	14447.529
612.518	14490.769
612.646	14432.788
612.774	14524.558
612.902	14537.788
613.030	14521.038
613.158	14534.471
613.287	14609.558
613.415	14548.500
613.543	14616.558
613.671	14644.529
613.799	14676.817
613.927	14719.221
614.055	14721.702
614.183	14748.452
614.312	14748.904
614.440	14927.365
614.568	14835.067
614.696	14886.029
614.824	14900.885
614.952	14918.221
615.080	14960.750
615.208	15036.125
615.337	15125.788
615.465	15073.317
615.593	15168.250
615.721	15129.587
615.849	15179.413
615.977	15183.365
616.105	15218.154
616.233	15252.490
616.362	15326.971
616.490	15320.490
616.618	15356.837
616.746	15447.769
616.874	15455.750
617.002	15488.904
617.130	15499.125
617.258	15455.808
617.387	15514.808
617.515	15582.317
617.643	15516.779
617.771	15594.981
617.899	15553.942
618.027	15627.038
618.155	15676.038
618.283	15687.567
618.412	15694.106
618.540	15747.885
618.668	15751.481
618.796	15742.548
618.924	15712.683
619.052	15753.538
619.180	15749.692
619.308	15717.096
619.437	15708.808
619.565	15750.327
619.693	15730.481
619.821	15755.385
619.949	15705.750
620.077	15734.538
620.205	15802.750
620.333	15790.529
620.462	15776.067
620.590	15775.173
620.718	15795.837
620.846	15835.962
620.974	15810.702
621.102	15844.212
621.230	15809.087
621.358	15928.231
621.487	15785.365
621.615	15849.038
621.743	15738.404
621.871	15825.135
621.999	15760.510
622.127	15791.625
622.255	15765.683
622.383	15751.240
622.512	15751.740
622.640	15741.654
622.768	15811.731
622.896	15861.731
623.024	15791.933
623.152	15774.471
623.280	15847.471
623.408	15779.779
623.537	15801.240
623.665	15720.442
623.793	15805.740
623.921	15785.067
624.049	15774.442
624.177	15738.769
624.305	15726.808
624.433	15758.817
624.562	15806.433
624.690	15872.038
624.818	15702.067
624.946	15726.471
625.074	15671.673
625.202	15695.779
625.330	15739.913
625.458	15881.010
625.587	15726.471
625.715	15793.154
625.843	15692.769
625.971	15765.433
626.099	15729.317
626.227	15746.106
626.355	15731.769
626.483	15799.106
626.612	15734.212
626.740	15793.019
626.868	15757.692
626.996	15836.635
627.124	15773.942
627.252	15759.029
627.380	15780.846
627.508	15767.760
627.637	15762.827
627.765	15849.529
627.893	15844.519
628.021	15924.510
628.149	15852.750
628.277	15927.519
628.405	15902.125
628.533	15880.462
628.662	15877.192
628.790	16000.683
628.918	15927.817
629.046	16093.625
629.174	15975.500
629.302	16006.010
629.430	15994.212
629.558	16059.913
629.687	16018.808
629.815	16078.221
629.943	16182.346
630.071	16139.077
630.199	16109.788
630.327	16173.250
630.455	16214.288
630.583	16221.817
630.712	16185.942
630.840	16257.663
630.968	16242.760
631.096	16272.702
631.224	16271.423
631.352	16414.808
631.480	16355.221
631.608	16474.048
631.737	16351.721
631.865	16457.615
631.993	16425.240
632.121	16550.500
632.249	16449.750
632.377	16421.683
632.505	16445.721
632.633	16504.798
632.762	16406.462
632.890	16417.856
633.018	16477.163
633.146	16390.192
633.274	16399.279
633.402	16455.673
633.530	16429.788
633.658	16400.558
633.787	16416.788
633.915	16424.490
634.043	16441.433
634.171	16473.375
634.299	16436.942
634.427	16370.279
634.555	16601.385
634.683	16364.837
634.812	16381.971
634.940	16351.558
635.068	16331.000
635.196	16320.019
635.324	16296.798
635.452	16278.635
635.580	16364.413
635.708	16230.375
635.837	16282.433
635.965	16227.625
636.093	16187.981
636.221	16174.587
636.349	16114.904
636.477	16094.798
636.605	16138.663
636.733	16058.048
636.862	16047.519
636.990	16047.913
637.118	16036.077
637.246	15977.529
637.374	16100.904
637.502	15906.433
637.630	15919.904
637.758	15879.096
637.887	15822.221
638.015	15972.529
638.143	15887.587
638.271	15777.971
638.399	15834.548
638.527	15732.163
638.655	15748.183
638.783	15691.567
638.912	15777.721
639.040	15666.385
639.168	15629.779
639.296	15648.346
639.424	15688.587
639.552	15630.058
639.680	15655.615
639.808	15614.125
639.937	15547.654
640.065	15539.875
640.193	15540.154
640.321	15636.952
640.449	15596.538
640.577	15504.721
640.705	15542.260
640.833	15518.856
640.962	15583.692
641.090	15479.413
641.218	15470.538
641.346	15569.885
641.474	15508.087
641.602	15477.163
641.730	15470.298
641.858	15498.385
641.987	15467.000
642.115	15646.298
642.243	15487.269
642.371	15694.712
642.499	15499.894
642.627	15565.702
642.755	15488.942
642.883	15521.067
643.012	15519.067
643.140	15558.337
643.268	15554.577
643.396	15495.423
643.524	15518.875
643.652	15597.240
643.780	15470.394
643.908	15480.500
644.037	15605.606
644.165	15525.500
644.293	15639.894
644.421	15458.163
644.549	15515.087
644.677	15532.538
644.805	15504.481
644.933	15421.413
645.062	15512.087
645.190	15586.135
645.318	15499.375
645.446	15433.625
645.574	15405.750
645.702	15475.067
645.830	15424.731
645.958	15351.981
646.087	15376.952
646.215	15321.183
646.343	15352.106
646.471	15498.913
646.599	15328.125
646.727	15317.827
646.855	15309.548
646.983	15279.625
647.112	15328.337
647.240	15262.481
647.368	15302.394
647.496	15239.260
647.624	15197.779
647.752	15202.962
647.880	15175.635
648.008	15178.596
648.137	15198.269
648.265	15118.029
648.393	15184.933
648.521	15089.673
648.649	15192.404
648.777	15091.346
648.905	15055.913
649.033	15071.327
649.162	14944.894
649.290	14895.077
649.418	14887.269
649.546	15049.144
649.674	14852.250
649.802	14824.115
649.930	14744.529
650.058	14705.635
650.187	14734.529
650.315	14696.567
650.443	14721.423
650.571	14610.240
650.699	14617.308
650.827	14596.077
650.955	14523.433
651.083	14586.231
651.212	14492.510
651.340	14532.077
651.468	14419.692
651.596	14418.654
651.724	14411.750
651.852	14315.000
651.980	14309.808
652.108	14270.904
652.237	14240.471
652.365	14226.202
652.493	14187.904
652.621	14172.577
652.749	14128.577
652.877	14105.846
653.005	14118.856
653.133	14076.913
653.262	13998.548
653.390	13984.490
653.518	14130.923
653.646	13934.154
653.774	13912.067
653.902	14027.298
654.030	13925.481
654.158	13831.769
654.287	13856.558
654.415	13814.750
654.543	13846.481
654.671	13771.933
654.799	13725.087
654.927	13718.894
655.055	13677.942
655.183	13667.365
655.312	13648.500
655.440	13630.923
655.568	13577.221
655.696	13622.135
655.824	13544.490
655.952	13524.144
656.080	13463.904
656.208	13478.683
656.337	13515.538
656.465	13603.856
656.593	13394.010
656.721	13417.779
656.849	13504.644
656.977	13273.125
657.105	13273.558
657.233	13311.865
657.362	13297.423
657.490	13254.548
657.618	13233.875
657.746	13162.635
657.874	13061.981
658.002	13040.750
658.130	12987.971
658.258	13008.856
658.387	12957.548
658.515	12900.846
658.643	12919.558
658.771	12963.490
658.899	12847.192
659.027	12871.077
659.155	12830.827
659.283	12785.346
659.412	12795.788
659.540	12761.308
659.668	12791.096
659.796	12810.817
659.924	12724.673
660.052	12832.125
660.180	12689.077
660.308	12744.673
660.437	12709.125
660.565	12613.587
660.693	12526.500
660.821	12691.308
660.949	12477.644
661.077	12548.606
661.205	12619.587
661.333	12431.942
661.462	12386.298
661.590	12524.769
661.718	12410.500
661.846	12419.769
661.974	12328.317
662.102	12291.346
662.230	12340.106
662.358	12168.346
662.487	12269.885
662.615	12222.452
662.743	12213.231
662.871	12207.279
662.999	12079.067
663.127	12114.385
663.255	12067.962
663.383	12179.106
663.512	12010.471
663.640	12064.154
663.768	12036.471
663.896	11972.500
664.024	11952.048
664.152	11917.038
664.280	11987.606
664.408	11879.875
664.537	11856.510
664.665	11870.692
664.793	11835.933
664.921	11797.856
665.049	11838.212
665.177	11723.510
665.305	11734.808
665.433	11757.913
665.562	11881.606
665.690	11714.413
665.818	11848.971
665.946	11641.548
666.074	11613.962
666.202	11620.087
666.330	11554.019
666.458	11925.308
666.587	11508.702
666.715	11511.904
666.843	11466.962
666.971	11487.913
667.099	11509.365
667.227	11499.481
667.355	11476.558
667.483	11422.538
667.612	11409.827
667.740	11372.087
667.868	11308.875
667.996	11275.962
668.124	11310.558
668.252	11373.038
668.380	11244.885
668.508	11240.490
668.637	11200.750
668.765	11207.606
668.893	11148.115
669.021	11091.231
669.149	11155.625
669.277	11043.106
669.405	11147.817
669.533	11076.625
669.662	10985.163
669.790	10977.904
669.918	10964.019
670.046	11050.962
670.174	10888.202
670.302	10855.212
670.430	10810.500
670.558	10826.173
670.687	10934.375
670.815	10758.500
670.943	10763.135
671.071	10663.183
671.199	10624.048
671.327	10624.500
671.455	10639.558
671.583	10576.625
671.712	10541.288
671.840	10570.894
671.968	10668.683
672.096	10617.923
672.224	10411.192
672.352	10383.837
672.480	10333.308
672.608	10366.452
672.737	10277.279
672.865	10233.087
672.993	10174.615
673.121	10202.269
673.249	10180.471
673.377	10108.000
673.505	10083.269
673.633	10131.000
673.762	10010.288
673.890	10041.000
674.018	10027.913
674.146	9946.923
674.274	9902.183
674.402	9968.971
674.530	9868.394
674.658	9811.769
674.787	9765.260
674.915	9899.067
675.043	9735.250
675.171	9703.375
675.299	9654.144
675.427	9620.394
675.555	9585.981
675.683	9599.240
675.812	9548.692
675.940	9527.365
676.068	9470.904
676.196	9475.538
676.324	9388.856
676.452	9361.077
676.580	9313.731
676.708	9277.462
676.837	9253.490
676.965	9339.933
677.093	9358.087
677.221	9243.269
677.349	9146.058
677.477	9190.750
677.605	9072.577
677.733	9092.500
677.862	9060.260
677.990	9053.913
678.118	9049.635
678.246	8980.154
678.374	9018.144
678.502	8943.260
678.630	8853.173
678.758	8857.202
678.887	8984.067
679.015	8762.885
679.143	8748.981
679.271	8721.529
679.399	8713.115
679.527	8693.500
679.655	8702.115
679.783	8607.952
679.912	8580.346
680.040	8742.548
680.168	8528.365
680.296	8550.981
680.424	8518.048
680.552	8469.721
680.680	8459.500
680.808	8415.913
680.937	8373.029
681.065	8411.606
681.193	8346.442
681.321	8303.490
681.449	8323.308
681.577	8258.865
681.705	8255.346
681.833	8246.750
681.962	8213.279
682.090	8151.740
682.218	8152.510
682.346	8167.317
682.474	8086.990
682.602	8107.096
682.730	8131.779
682.858	8040.298
682.987	8038.635
683.115	8038.846
683.243	7982.279
683.371	7958.529
683.499	7946.923
683.627	7981.231
683.755	7908.788
683.883	7881.683
684.012	7889.394
684.140	7829.260
684.268	7824.144
684.396	7872.423
684.524	7782.221
684.652	7784.413
684.780	7783.029
684.908	7760.125
685.037	7736.904
685.165	7711.087
685.293	7779.644
685.421	7708.433
685.549	7678.433
685.677	7618.856
685.805	7667.346
685.933	7595.269
686.062	7609.173
686.190	7561.019
686.318	7537.327
686.446	7485.029
686.574	7461.231
686.702	7515.500
686.830	7444.692
686.958	7499.913
687.087	7378.654
687.215	7403.962
687.343	7388.577
687.471	7487.817
687.599	7282.827
687.727	7258.587
687.855	7236.510
687.983	7202.567
688.112	7263.413
688.240	7226.788
688.368	7210.221
688.496	7152.048
688.624	7111.885
688.752	7268.471
688.880	7093.096
689.008	7098.625
689.137	7061.317
689.265	7023.904
689.393	7034.269
689.521	6980.317
689.649	7081.673
689.777	6985.865
689.905	7019.942
690.033	6899.769
690.162	6839.077
690.290	6922.375
690.418	6828.452
690.546	6872.385
690.674	6847.673
690.802	6845.212
690.930	6789.721
691.058	6794.260
691.187	6693.010
691.315	6708.798
691.443	6701.577
691.571	6701.183
691.699	6641.298
691.827	6597.231
691.955	6594.442
692.083	6566.702
692.212	6546.308
692.340	6555.125
692.468	6567.702
692.596	6525.596
692.724	6466.452
692.852	6492.529
692.980	6485.269
693.108	6484.750
693.237	6375.952
693.365	6352.654
693.493	6326.923
693.621	6346.115
693.749	6268.865
693.877	6345.019
694.005	6213.990
694.133	6250.423
694.262	6303.317
694.390	6158.856
694.518	6181.240
694.646	6155.413
694.774	6088.356
694.902	6086.096
695.030	6078.048
695.158	6053.683
695.287	6066.327
695.415	6004.144
695.543	5984.394
695.671	5952.981
695.799	6024.183
695.927	5934.442
696.055	5928.433
696.183	5848.481
696.312	6011.788
696.440	5855.663
696.568	5833.615
696.696	5719.971
696.824	5706.760
696.952	5721.462
697.080	5697.663
697.208	5630.385
697.337	5644.519
697.465	5628.317
697.593	5574.202
697.721	5699.692
697.849	5555.144
697.977	5593.019
698.105	5600.769
698.233	5540.308
698.362	5452.990
698.490	5575.356
698.618	5431.058
698.746	5399.875
698.874	5484.990
699.002	5414.385
699.130	5401.413
699.258	5346.798
699.387	5284.750
699.515	5336.298
699.643	5324.798
699.771	5370.452
699.899	5273.635
700.027	5187.125
700.155	5249.433
700.283	5144.077
700.412	5150.452
700.540	5192.452
700.668	5195.894
700.796	5085.096
700.924	5143.779
701.052	5116.865
701.180	5101.385
701.308	5006.442
701.437	4971.606
701.565	4956.375
701.693	5009.673
701.821	5136.327
701.949	4900.038
702.077	4935.067
702.205	4975.067
702.333	4882.327
702.462	4849.375
702.590	4880.183
702.718	4789.538
702.846	4954.192
702.974	4751.750
703.102	4756.125
703.230	4769.846
703.358	4704.750
703.487	4687.048
703.615	4700.779
703.743	4644.817
703.871	4616.260
703.999	4611.692
704.127	4599.288
704.255	4554.923
704.383	4580.365
704.512	4606.615
704.640	4568.692
704.768	4605.471
704.896	4492.731
705.024	4427.106
705.152	4458.394
705.280	4469.231
705.408	4380.144
705.537	4354.365
705.665	4369.394
705.793	4331.519
705.921	4341.010
706.049	4278.933
706.177	4310.365
706.305	4239.894
706.433	4284.692
706.562	4256.308
706.690	4245.856
706.818	4231.144
706.946	4153.856
707.074	4139.029
707.202	4107.952
707.330	4130.894
707.458	4078.683
707.587	4068.962
707.715	4085.356
707.843	4091.019
707.971	4088.346
708.099	3992.452
708.227	3980.135
708.355	3994.779
708.483	3947.029
708.612	3965.673
708.740	3911.673
708.868	3903.587
708.996	3955.865
709.124	3948.779
709.252	3888.673
709.380	3894.596
709.508	3843.038
709.637	3865.048
709.765	3828.673
709.893	3867.317
710.021	3774.308
710.149	3880.606
710.277	3737.490
710.405	3748.115
710.533	3746.625
710.662	3707.250
710.790	3819.096
710.918	3658.760
711.046	3725.154
711.174	3665.125
711.302	3699.846
711.430	3659.615
711.558	3679.683
711.687	3628.231
711.815	3594.413
711.943	3559.154
712.071	3572.750
712.199	3585.962
712.327	3654.942
712.455	3530.019
712.583	3679.663
712.712	3518.856
712.840	3546.212
712.968	3483.000
713.096	3489.250
713.224	3445.942
713.352	3444.183
713.480	3384.077
713.608	3393.548
713.737	3368.760
713.865	3421.510
713.993	3405.577
714.121	3391.327
714.249	3320.240
714.377	3351.942
714.505	3294.865
714.633	3323.490
714.762	3291.356
714.890	3297.885
715.018	3285.548
715.146	3302.837
715.274	3231.337
715.402	3238.058
715.530	3212.683
715.658	3257.606
715.787	3215.644
715.915	3294.163
716.043	3184.923
716.171	3301.471
716.299	3119.692
716.427	3217.615
716.555	3113.125
716.683	3113.779
716.812	3077.423
716.940	3082.471
717.068	3052.875
717.196	3215.663
717.324	3092.654
717.452	3072.442
717.580	3090.029
717.708	3003.106
717.837	3002.712
717.965	3056.365
718.093	3006.000
718.221	3033.981
718.349	3057.548
718.477	2951.990
718.605	3029.423
718.733	2959.971
718.862	2967.683
718.990	2904.712
719.118	2976.779
719.246	2894.846
719.374	2886.510
719.502	2916.817
719.630	3019.702
719.758	2851.673
719.887	2829.654
720.015	2858.317
720.143	2898.971
720.271	2794.452
720.399	2855.423
720.527	2794.317
720.655	2882.510
720.783	2789.962
720.912	2769.356
721.040	2760.288
721.168	2788.933
721.296	2724.683
721.424	2752.779
721.552	2721.481
721.680	2755.798
721.808	2744.683
