70_80_90_Pol_at_750.00nm_cut_at_1179.00Y_01.dat
03.07.2023
10:53:49
cut middle at Y: 1179.00
top cursor: 1231 down cursor: 1127 mean of: 104 lines , 2560 datapoints
wavelength(nm)	intensity[arb. units]
585.996	19644.375
586.124	19332.221
586.252	19319.394
586.380	19299.692
586.508	19417.846
586.637	19485.327
586.765	19450.077
586.893	19474.010
587.021	19568.423
587.149	19604.019
587.277	19589.990
587.405	19605.779
587.533	19653.154
587.662	19689.442
587.790	19648.837
587.918	19607.692
588.046	19640.404
588.174	19666.481
588.302	19718.788
588.430	19711.606
588.558	19691.462
588.687	19703.913
588.815	19746.663
588.943	19694.173
589.071	19714.808
589.199	19755.673
589.327	19703.673
589.455	19775.192
589.583	19777.106
589.712	19775.240
589.840	19703.481
589.968	19720.308
590.096	19822.125
590.224	19749.519
590.352	19855.625
590.480	19791.500
590.608	19765.298
590.737	19812.923
590.865	19852.481
590.993	19755.712
591.121	19729.981
591.249	19811.865
591.377	19780.981
591.505	19852.683
591.633	19788.885
591.762	19785.788
591.890	19766.577
592.018	19907.904
592.146	19829.010
592.274	19796.308
592.402	19779.856
592.530	20018.173
592.658	19887.519
592.787	19911.837
592.915	19955.154
593.043	19878.596
593.171	19991.856
593.299	19983.933
593.427	19970.923
593.555	20016.654
593.683	20030.962
593.812	20092.904
593.940	20114.712
594.068	20112.894
594.196	20084.163
594.324	20197.202
594.452	20352.250
594.580	20321.048
594.708	20368.144
594.837	20355.962
594.965	20430.990
595.093	20435.904
595.221	20557.798
595.349	20531.442
595.477	20548.721
595.605	20609.856
595.733	20636.827
595.862	20684.163
595.990	20693.721
596.118	20727.760
596.246	20845.615
596.374	20764.163
596.502	20823.837
596.630	20833.183
596.758	20836.510
596.887	20903.327
597.015	20912.663
597.143	20927.192
597.271	20904.942
597.399	20966.808
597.527	20904.394
597.655	20941.231
597.783	20919.644
597.912	20912.529
598.040	20950.875
598.168	20930.933
598.296	20895.644
598.424	21053.971
598.552	20863.250
598.680	20861.346
598.808	20977.298
598.937	20905.048
599.065	20854.817
599.193	20944.962
599.321	20896.817
599.449	20852.462
599.577	20824.144
599.705	20863.846
599.833	20810.885
599.962	20809.298
600.090	20808.269
600.218	20775.067
600.346	20779.221
600.474	20787.000
600.602	20783.990
600.730	20767.663
600.858	20815.971
600.987	20939.865
601.115	20781.519
601.243	20889.010
601.371	20926.538
601.499	20936.529
601.627	20964.510
601.755	20978.356
601.883	21019.731
602.012	20883.317
602.140	21044.808
602.268	21023.106
602.396	21191.933
602.524	21099.327
602.652	21222.490
602.780	21198.317
602.908	21292.115
603.037	21374.404
603.165	21388.096
603.293	21409.404
603.421	21493.298
603.549	21545.510
603.677	21591.385
603.805	21646.635
603.933	21726.779
604.062	21781.731
604.190	21859.038
604.318	21880.596
604.446	21953.788
604.574	21978.712
604.702	21994.779
604.830	22034.048
604.958	22046.885
605.087	22144.087
605.215	22217.106
605.343	22305.548
605.471	22288.981
605.599	22295.356
605.727	22481.288
605.855	22430.202
605.983	22481.096
606.112	22519.288
606.240	22535.683
606.368	22547.221
606.496	22562.769
606.624	22696.038
606.752	22649.260
606.880	22686.077
607.008	22721.490
607.137	22685.904
607.265	22731.913
607.393	22742.827
607.521	22821.606
607.649	22727.875
607.777	22719.327
607.905	22753.077
608.033	22711.173
608.162	22694.212
608.290	22707.702
608.418	22818.087
608.546	22745.933
608.674	22789.308
608.802	22725.404
608.930	22713.385
609.058	22671.654
609.187	22680.212
609.315	22645.673
609.443	22653.933
609.571	22780.279
609.699	22640.375
609.827	22635.433
609.955	22635.317
610.083	22584.192
610.212	22547.567
610.340	22460.442
610.468	22529.413
610.596	22534.875
610.724	22496.173
610.852	22571.385
610.980	22524.048
611.108	22497.798
611.237	22502.856
611.365	22510.231
611.493	22474.885
611.621	22470.269
611.749	22520.875
611.877	22583.683
612.005	22486.192
612.133	22588.606
612.262	22577.029
612.390	22621.288
612.518	22609.673
612.646	22545.529
612.774	22637.221
612.902	22682.375
613.030	22699.596
613.158	22670.990
613.287	22745.346
613.415	22674.173
613.543	22779.692
613.671	22730.692
613.799	22805.894
613.927	22819.240
614.055	22894.865
614.183	22902.788
614.312	22874.654
614.440	23033.404
614.568	23012.577
614.696	23015.202
614.824	23019.250
614.952	23071.202
615.080	23122.192
615.208	23162.548
615.337	23219.385
615.465	23151.702
615.593	23285.952
615.721	23224.365
615.849	23309.250
615.977	23265.471
616.105	23327.288
616.233	23379.904
616.362	23428.154
616.490	23430.260
616.618	23458.462
616.746	23580.894
616.874	23524.971
617.002	23565.750
617.130	23575.558
617.258	23595.260
617.387	23627.817
617.515	23636.250
617.643	23629.154
617.771	23680.798
617.899	23639.740
618.027	23680.644
618.155	23721.654
618.283	23684.452
618.412	23746.096
618.540	23785.000
618.668	23721.788
618.796	23770.308
618.924	23733.163
619.052	23812.308
619.180	23710.942
619.308	23681.971
619.437	23696.067
619.565	23713.317
619.693	23693.875
619.821	23770.163
619.949	23732.923
620.077	23707.327
620.205	23738.923
620.333	23757.692
620.462	23681.279
620.590	23755.067
620.718	23736.587
620.846	23713.721
620.974	23706.481
621.102	23759.548
621.230	23699.827
621.358	23843.538
621.487	23712.346
621.615	23702.298
621.743	23556.337
621.871	23658.519
621.999	23613.625
622.127	23556.288
622.255	23593.596
622.383	23532.760
622.512	23526.202
622.640	23494.192
622.768	23527.452
622.896	23578.077
623.024	23515.423
623.152	23453.087
623.280	23542.692
623.408	23477.500
623.537	23504.500
623.665	23415.038
623.793	23488.606
623.921	23448.356
624.049	23392.856
624.177	23406.769
624.305	23370.769
624.433	23399.731
624.562	23389.000
624.690	23470.442
624.818	23314.096
624.946	23276.442
625.074	23244.538
625.202	23252.702
625.330	23245.385
625.458	23308.913
625.587	23250.721
625.715	23274.202
625.843	23207.808
625.971	23242.231
626.099	23221.337
626.227	23193.433
626.355	23121.913
626.483	23196.837
626.612	23119.240
626.740	23210.183
626.868	23120.471
626.996	23231.327
627.124	23129.010
627.252	23119.490
627.380	23166.058
627.508	23068.192
627.637	23115.077
627.765	23184.010
627.893	23195.721
628.021	23193.356
628.149	23116.731
628.277	23148.385
628.405	23097.798
628.533	23122.413
628.662	23128.212
628.790	23207.048
628.918	23135.029
629.046	23204.981
629.174	23105.885
629.302	23120.952
629.430	23119.221
629.558	23185.106
629.687	23118.971
629.815	23131.538
629.943	23235.683
630.071	23159.933
630.199	23157.702
630.327	23189.500
630.455	23202.481
630.583	23184.260
630.712	23249.692
630.840	23197.837
630.968	23167.240
631.096	23207.154
631.224	23176.048
631.352	23320.875
631.480	23233.981
631.608	23418.154
631.737	23161.115
631.865	23294.548
631.993	23248.202
632.121	23404.394
632.249	23252.692
632.377	23186.683
632.505	23196.096
632.633	23302.173
632.762	23192.548
632.890	23212.433
633.018	23151.894
633.146	23155.019
633.274	23091.404
633.402	23170.490
633.530	23094.500
633.658	23099.413
633.787	23054.115
633.915	23008.529
634.043	23040.769
634.171	23032.500
634.299	22972.058
634.427	22915.365
634.555	23124.721
634.683	22889.298
634.812	22856.038
634.940	22806.567
635.068	22779.519
635.196	22709.346
635.324	22705.558
635.452	22663.490
635.580	22726.260
635.708	22558.125
635.837	22603.250
635.965	22509.490
636.093	22501.712
636.221	22388.788
636.349	22286.442
636.477	22256.740
636.605	22258.510
636.733	22205.019
636.862	22168.077
636.990	22111.327
637.118	22016.096
637.246	21973.981
637.374	22070.106
637.502	21867.962
637.630	21787.038
637.758	21768.404
637.887	21672.587
638.015	21840.538
638.143	21652.923
638.271	21570.548
638.399	21584.317
638.527	21498.529
638.655	21405.010
638.783	21395.317
638.912	21449.606
639.040	21317.519
639.168	21217.288
639.296	21186.096
639.424	21223.019
639.552	21171.538
639.680	21152.808
639.808	21097.462
639.937	21007.433
640.065	20990.788
640.193	20984.769
640.321	21098.635
640.449	20973.471
640.577	20886.462
640.705	20906.125
640.833	20843.808
640.962	20928.615
641.090	20804.471
641.218	20793.212
641.346	20855.865
641.474	20773.173
641.602	20747.135
641.730	20725.510
641.858	20698.327
641.987	20682.192
642.115	20862.356
642.243	20688.644
642.371	20801.962
642.499	20616.721
642.627	20667.413
642.755	20609.096
642.883	20569.144
643.012	20554.413
643.140	20594.087
643.268	20546.779
643.396	20526.577
643.524	20503.962
643.652	20560.702
643.780	20478.433
643.908	20440.106
644.037	20499.577
644.165	20488.163
644.293	20582.894
644.421	20382.875
644.549	20380.327
644.677	20450.442
644.805	20331.394
644.933	20315.471
645.062	20349.548
645.190	20450.990
645.318	20275.721
645.446	20227.048
645.574	20202.038
645.702	20198.904
645.830	20167.279
645.958	20093.144
646.087	20046.942
646.215	20015.404
646.343	19990.077
646.471	20114.740
646.599	19936.231
646.727	19911.212
646.855	19886.721
646.983	19839.788
647.112	19854.942
647.240	19742.615
647.368	19810.808
647.496	19716.875
647.624	19665.933
647.752	19651.971
647.880	19576.721
648.008	19556.490
648.137	19552.096
648.265	19450.260
648.393	19498.394
648.521	19420.942
648.649	19476.596
648.777	19407.154
648.905	19304.750
649.033	19346.798
649.162	19158.096
649.290	19101.865
649.418	19050.327
649.546	19156.327
649.674	18958.375
649.802	18905.346
649.930	18858.990
650.058	18833.837
650.187	18823.875
650.315	18750.942
650.443	18706.817
650.571	18618.808
650.699	18578.462
650.827	18515.817
650.955	18445.673
651.083	18457.346
651.212	18361.010
651.340	18332.817
651.468	18267.654
651.596	18234.144
651.724	18176.202
651.852	18130.288
651.980	18127.365
652.108	17996.058
652.237	18047.519
652.365	17913.673
652.493	17871.894
652.621	17815.481
652.749	17757.606
652.877	17749.923
653.005	17731.567
653.133	17647.087
653.262	17611.788
653.390	17548.865
653.518	17632.558
653.646	17455.010
653.774	17431.317
653.902	17428.702
654.030	17343.981
654.158	17203.856
654.287	17249.442
654.415	17142.721
654.543	17178.567
654.671	17093.692
654.799	17065.587
654.927	16995.981
655.055	16915.240
655.183	16922.567
655.312	16886.635
655.440	16787.885
655.568	16770.058
655.696	16789.279
655.824	16679.231
655.952	16668.279
656.080	16575.712
656.208	16550.288
656.337	16553.625
656.465	16628.894
656.593	16438.087
656.721	16467.663
656.849	16453.279
656.977	16240.817
657.105	16250.106
657.233	16202.702
657.362	16260.856
657.490	16186.673
657.618	16127.952
657.746	16092.135
657.874	15996.500
658.002	15897.125
658.130	15833.856
658.258	15782.029
658.387	15758.365
658.515	15689.154
658.643	15622.087
658.771	15683.096
658.899	15540.702
659.027	15511.029
659.155	15486.365
659.283	15442.798
659.412	15414.135
659.540	15371.712
659.668	15347.875
659.796	15367.644
659.924	15290.279
660.052	15330.673
660.180	15266.106
660.308	15283.644
660.437	15213.529
660.565	15153.923
660.693	15060.231
660.821	15161.779
660.949	14908.365
661.077	14946.798
661.205	15038.279
661.333	14872.221
661.462	14822.567
661.590	14889.596
661.718	14751.606
661.846	14758.606
661.974	14698.952
662.102	14657.510
662.230	14621.606
662.358	14474.990
662.487	14540.212
662.615	14493.548
662.743	14456.692
662.871	14396.971
662.999	14343.663
663.127	14314.644
663.255	14275.942
663.383	14398.394
663.512	14208.125
663.640	14214.202
663.768	14196.596
663.896	14128.519
664.024	14105.433
664.152	14051.933
664.280	14090.538
664.408	13952.846
664.537	13923.096
664.665	13925.462
664.793	13897.452
664.921	13851.846
665.049	13891.250
665.177	13778.567
665.305	13786.962
665.433	13770.279
665.562	13860.106
665.690	13713.577
665.818	13785.125
665.946	13590.587
666.074	13562.750
666.202	13525.337
666.330	13443.125
666.458	13799.625
666.587	13460.692
666.715	13414.942
666.843	13379.587
666.971	13353.212
667.099	13350.115
667.227	13408.990
667.355	13330.192
667.483	13243.644
667.612	13252.587
667.740	13230.913
667.868	13135.115
667.996	13126.923
668.124	13104.462
668.252	13190.106
668.380	13026.856
668.508	13037.173
668.637	12982.067
668.765	12983.894
668.893	12918.010
669.021	12828.067
669.149	12868.567
669.277	12728.356
669.405	12825.231
669.533	12764.913
669.662	12706.269
669.790	12660.875
669.918	12627.788
670.046	12721.183
670.174	12523.894
670.302	12503.663
670.430	12419.029
670.558	12441.173
670.687	12524.058
670.815	12319.875
670.943	12386.875
671.071	12249.077
671.199	12182.356
671.327	12214.096
671.455	12200.558
671.583	12086.202
671.712	12099.625
671.840	12096.962
671.968	12186.654
672.096	12136.231
672.224	11903.038
672.352	11898.327
672.480	11804.644
672.608	11822.837
672.737	11740.337
672.865	11696.587
672.993	11664.952
673.121	11594.346
673.249	11602.933
673.377	11509.135
673.505	11491.808
673.633	11494.346
673.762	11402.413
673.890	11373.192
674.018	11372.596
674.146	11269.596
674.274	11227.933
674.402	11254.394
674.530	11212.865
674.658	11125.442
674.787	11095.096
674.915	11188.769
675.043	11020.000
675.171	10991.817
675.299	10914.500
675.427	10821.115
675.555	10845.923
675.683	10832.827
675.812	10769.894
675.940	10718.577
676.068	10661.337
676.196	10652.135
676.324	10566.615
676.452	10522.183
676.580	10460.192
676.708	10449.231
676.837	10408.423
676.965	10495.942
677.093	10510.327
677.221	10341.654
677.349	10284.231
677.477	10321.279
677.605	10177.298
677.733	10174.135
677.862	10141.365
677.990	10096.721
678.118	10125.750
678.246	10032.942
678.374	10089.413
678.502	9930.885
678.630	9868.779
678.758	9900.375
678.887	10013.452
679.015	9768.933
679.143	9746.760
679.271	9702.010
679.399	9682.673
679.527	9721.010
679.655	9722.096
679.783	9608.481
679.912	9564.462
680.040	9706.000
680.168	9487.904
680.296	9501.923
680.424	9454.827
680.552	9408.865
680.680	9369.317
680.808	9311.154
680.937	9264.942
681.065	9333.346
681.193	9224.317
681.321	9189.173
681.449	9246.269
681.577	9180.067
681.705	9141.462
681.833	9128.019
681.962	9047.587
682.090	9051.808
682.218	9037.029
682.346	9052.279
682.474	8956.375
682.602	8934.875
682.730	8999.135
682.858	8862.558
682.987	8875.962
683.115	8866.000
683.243	8815.558
683.371	8790.962
683.499	8716.865
683.627	8789.865
683.755	8744.212
683.883	8703.048
684.012	8693.000
684.140	8613.231
684.268	8631.750
684.396	8664.433
684.524	8568.952
684.652	8581.413
684.780	8607.144
684.908	8540.587
685.037	8532.125
685.165	8510.471
685.293	8554.288
685.421	8480.846
685.549	8439.587
685.677	8408.529
685.805	8427.163
685.933	8372.712
686.062	8329.413
686.190	8316.087
686.318	8287.962
686.446	8260.356
686.574	8206.375
686.702	8273.683
686.830	8153.288
686.958	8202.548
687.087	8131.125
687.215	8124.558
687.343	8102.490
687.471	8230.462
687.599	7999.798
687.727	8019.875
687.855	7956.058
687.983	7919.298
688.112	8004.548
688.240	7922.942
688.368	7912.731
688.496	7853.442
688.624	7820.548
688.752	7933.471
688.880	7823.731
689.008	7761.231
689.137	7757.192
689.265	7690.779
689.393	7692.692
689.521	7683.404
689.649	7720.308
689.777	7673.288
689.905	7690.606
690.033	7544.740
690.162	7531.481
690.290	7564.827
690.418	7473.404
690.546	7520.567
690.674	7478.577
690.802	7484.577
690.930	7444.500
691.058	7401.587
691.187	7372.750
691.315	7334.125
691.443	7302.712
691.571	7295.442
691.699	7252.115
691.827	7197.385
691.955	7214.846
692.083	7174.462
692.212	7172.346
692.340	7137.942
692.468	7147.462
692.596	7132.308
692.724	7043.058
692.852	7048.577
692.980	7059.788
693.108	7060.904
693.237	6950.971
693.365	6933.779
693.493	6893.654
693.621	6898.250
693.749	6835.913
693.877	6895.221
694.005	6771.683
694.133	6771.385
694.262	6809.385
694.390	6701.317
694.518	6728.981
694.646	6684.856
694.774	6596.442
694.902	6614.933
695.030	6592.106
695.158	6587.154
695.287	6542.385
695.415	6564.683
695.543	6487.769
695.671	6451.346
695.799	6563.106
695.927	6474.125
696.055	6425.558
696.183	6380.471
696.312	6539.106
696.440	6373.625
696.568	6345.644
696.696	6234.019
696.824	6201.346
696.952	6205.327
697.080	6203.856
697.208	6150.125
697.337	6113.125
697.465	6112.183
697.593	6062.490
697.721	6165.837
697.849	6034.731
697.977	6070.500
698.105	6063.413
698.233	6009.192
698.362	5920.875
698.490	6065.346
698.618	5883.077
698.746	5870.846
698.874	5908.385
699.002	5865.933
699.130	5872.048
699.258	5806.288
699.387	5735.606
699.515	5768.077
699.643	5774.423
699.771	5805.654
699.899	5677.817
700.027	5624.798
700.155	5696.462
700.283	5568.038
700.412	5578.962
700.540	5588.740
700.668	5637.413
700.796	5505.942
700.924	5528.798
701.052	5518.058
701.180	5494.423
701.308	5402.625
701.437	5383.231
701.565	5348.087
701.693	5403.000
701.821	5522.702
701.949	5270.308
702.077	5294.740
702.205	5351.490
702.333	5263.942
702.462	5223.337
702.590	5249.731
702.718	5132.413
702.846	5334.817
702.974	5104.260
703.102	5106.365
703.230	5088.106
703.358	5023.635
703.487	5038.731
703.615	5008.337
703.743	4984.606
703.871	4989.308
703.999	4958.990
704.127	4909.587
704.255	4885.596
704.383	4915.019
704.512	4957.519
704.640	4890.558
704.768	4936.471
704.896	4802.327
705.024	4752.596
705.152	4773.327
705.280	4797.740
705.408	4726.144
705.537	4672.952
705.665	4689.962
705.793	4650.673
705.921	4630.712
706.049	4591.269
706.177	4621.885
706.305	4559.865
706.433	4598.481
706.562	4529.894
706.690	4540.567
706.818	4527.846
706.946	4460.058
707.074	4436.510
707.202	4405.471
707.330	4396.942
707.458	4383.337
707.587	4347.452
707.715	4367.606
707.843	4368.442
707.971	4351.413
708.099	4246.798
708.227	4281.942
708.355	4253.240
708.483	4222.029
708.612	4224.923
708.740	4180.712
708.868	4176.019
708.996	4232.221
709.124	4211.077
709.252	4148.875
709.380	4153.923
709.508	4086.817
709.637	4101.394
709.765	4071.269
709.893	4097.385
710.021	4029.798
710.149	4103.529
710.277	3976.913
710.405	3972.288
710.533	3973.183
710.662	3953.721
710.790	4075.404
710.918	3877.087
711.046	3966.404
711.174	3875.846
711.302	3939.837
711.430	3867.510
711.558	3890.635
711.687	3862.769
711.815	3799.500
711.943	3784.683
712.071	3774.231
712.199	3828.846
712.327	3855.288
712.455	3727.288
712.583	3930.663
712.712	3737.635
712.840	3784.125
712.968	3713.952
713.096	3688.952
713.224	3668.144
713.352	3663.471
713.480	3604.346
713.608	3603.260
713.737	3548.173
713.865	3618.817
713.993	3562.308
714.121	3591.413
714.249	3546.221
714.377	3534.952
714.505	3506.933
714.633	3518.837
714.762	3501.337
714.890	3493.394
715.018	3478.692
715.146	3513.837
715.274	3455.385
715.402	3444.587
715.530	3425.404
715.658	3450.587
715.787	3392.817
715.915	3488.500
716.043	3388.202
716.171	3488.692
716.299	3334.856
716.427	3406.183
716.555	3319.837
716.683	3309.981
716.812	3298.433
716.940	3268.202
717.068	3240.721
717.196	3401.875
717.324	3279.865
717.452	3236.202
717.580	3291.163
717.708	3188.173
717.837	3196.279
717.965	3227.067
718.093	3178.471
718.221	3218.346
718.349	3222.385
718.477	3134.019
718.605	3206.019
718.733	3148.663
718.862	3155.317
718.990	3084.269
719.118	3142.240
719.246	3055.115
719.374	3045.750
719.502	3089.923
719.630	3163.923
719.758	3004.029
719.887	2990.154
720.015	3015.356
720.143	3039.548
720.271	2942.875
720.399	2991.192
720.527	2934.135
720.655	3015.000
720.783	2932.510
720.912	2885.231
721.040	2915.558
721.168	2926.683
721.296	2860.606
721.424	2881.788
721.552	2825.240
