Ref_Stop_90_Pol_at_750.00nm_cut_at_1179.00Y_01.dat
03.07.2023
11:36:10
cut middle at Y: 1179.00
top cursor: 1231 down cursor: 1127 mean of: 104 lines , 2560 datapoints
wavelength(nm)	intensity[arb. units]
585.996	9064.683
586.124	8862.404
586.252	8876.558
586.380	8858.971
586.508	8912.413
586.637	8987.615
586.765	8946.846
586.893	8961.933
587.021	8994.308
587.149	8999.106
587.277	9042.817
587.405	9011.577
587.533	9071.712
587.662	9131.250
587.790	9095.163
587.918	9089.510
588.046	9060.192
588.174	9090.490
588.302	9058.923
588.430	9061.010
588.558	9110.250
588.687	9116.115
588.815	9078.212
588.943	9132.067
589.071	9088.087
589.199	9131.346
589.327	9116.442
589.455	9179.558
589.583	9096.346
589.712	9125.654
589.840	9082.942
589.968	9089.067
590.096	9103.346
590.224	9071.375
590.352	9154.894
590.480	9084.413
590.608	9079.135
590.737	9092.721
590.865	9176.519
590.993	9016.250
591.121	9092.490
591.249	9069.413
591.377	9061.212
591.505	9158.327
591.633	9078.558
591.762	9065.077
591.890	9096.010
592.018	9146.740
592.146	9085.337
592.274	9095.692
592.402	9079.058
592.530	9276.769
592.658	9184.433
592.787	9176.942
592.915	9208.067
593.043	9085.308
593.171	9190.462
593.299	9151.490
593.427	9167.894
593.555	9165.827
593.683	9138.923
593.812	9200.019
593.940	9220.779
594.068	9211.942
594.196	9193.240
594.324	9208.000
594.452	9384.635
594.580	9291.231
594.708	9325.183
594.837	9297.702
594.965	9372.942
595.093	9326.375
595.221	9413.692
595.349	9400.654
595.477	9385.913
595.605	9402.173
595.733	9401.740
595.862	9418.971
595.990	9457.519
596.118	9486.067
596.246	9564.192
596.374	9490.519
596.502	9478.442
596.630	9509.337
596.758	9496.202
596.887	9499.558
597.015	9478.923
597.143	9492.077
597.271	9495.260
597.399	9569.779
597.527	9516.375
597.655	9523.471
597.783	9555.567
597.912	9514.096
598.040	9569.337
598.168	9513.529
598.296	9487.279
598.424	9668.048
598.552	9510.096
598.680	9489.962
598.808	9570.087
598.937	9514.952
599.065	9524.144
599.193	9566.740
599.321	9558.548
599.449	9483.308
599.577	9501.048
599.705	9536.702
599.833	9505.615
599.962	9456.942
600.090	9477.413
600.218	9476.654
600.346	9461.971
600.474	9488.933
600.602	9460.760
600.730	9455.635
600.858	9432.269
600.987	9504.346
601.115	9467.154
601.243	9535.971
601.371	9541.913
601.499	9534.269
601.627	9534.923
601.755	9481.529
601.883	9548.904
602.012	9463.163
602.140	9558.894
602.268	9528.538
602.396	9651.087
602.524	9538.654
602.652	9621.183
602.780	9632.125
602.908	9647.067
603.037	9686.587
603.165	9672.192
603.293	9680.798
603.421	9726.721
603.549	9726.942
603.677	9787.798
603.805	9780.404
603.933	9798.260
604.062	9850.202
604.190	9902.433
604.318	9914.125
604.446	9883.981
604.574	9931.183
604.702	10020.356
604.830	9944.087
604.958	9985.740
605.087	10008.125
605.215	10072.654
605.343	10197.606
605.471	10149.394
605.599	10160.692
605.727	10258.317
605.855	10223.269
605.983	10243.683
606.112	10278.394
606.240	10277.385
606.368	10296.029
606.496	10270.779
606.624	10319.183
606.752	10305.269
606.880	10356.558
607.008	10334.106
607.137	10333.010
607.265	10411.952
607.393	10385.760
607.521	10452.202
607.649	10380.788
607.777	10373.721
607.905	10400.683
608.033	10334.904
608.162	10385.837
608.290	10399.135
608.418	10502.462
608.546	10454.058
608.674	10431.721
608.802	10363.019
608.930	10403.635
609.058	10328.010
609.187	10344.471
609.315	10320.615
609.443	10322.808
609.571	10462.481
609.699	10325.106
609.827	10401.923
609.955	10337.798
610.083	10259.154
610.212	10262.163
610.340	10253.096
610.468	10266.904
610.596	10271.712
610.724	10228.779
610.852	10275.885
610.980	10253.087
611.108	10210.846
611.237	10198.644
611.365	10239.404
611.493	10177.625
611.621	10204.606
611.749	10188.029
611.877	10267.654
612.005	10209.567
612.133	10221.913
612.262	10236.952
612.390	10287.788
612.518	10315.442
612.646	10217.510
612.774	10304.308
612.902	10315.683
613.030	10258.029
613.158	10294.221
613.287	10363.106
613.415	10224.173
613.543	10310.663
613.671	10317.846
613.799	10353.558
613.927	10347.038
614.055	10413.019
614.183	10357.019
614.312	10324.644
614.440	10505.577
614.568	10432.769
614.696	10484.192
614.824	10448.500
614.952	10505.096
615.080	10488.019
615.208	10516.817
615.337	10640.010
615.465	10557.154
615.593	10614.442
615.721	10620.317
615.849	10697.240
615.977	10641.423
616.105	10703.096
616.233	10700.356
616.362	10724.298
616.490	10692.721
616.618	10740.490
616.746	10878.856
616.874	10802.288
617.002	10811.308
617.130	10837.692
617.258	10792.837
617.387	10805.923
617.515	10828.567
617.643	10824.596
617.771	10909.952
617.899	10834.798
618.027	10896.558
618.155	10931.904
618.283	10925.221
618.412	10923.558
618.540	10984.125
618.668	10927.490
618.796	10956.731
618.924	10881.817
619.052	10944.375
619.180	10916.962
619.308	10906.087
619.437	10913.846
619.565	10893.538
619.693	10875.712
619.821	10923.913
619.949	10898.663
620.077	10893.692
620.205	10917.471
620.333	10956.471
620.462	10875.404
620.590	10928.125
620.718	10906.750
620.846	10938.913
620.974	10947.846
621.102	10975.654
621.230	10940.923
621.358	11057.529
621.487	10871.308
621.615	10899.462
621.743	10840.423
621.871	10928.875
621.999	10834.750
622.127	10868.904
622.255	10843.856
622.383	10832.375
622.512	10817.500
622.640	10812.385
622.768	10849.000
622.896	10937.067
623.024	10878.163
623.152	10838.135
623.280	10917.510
623.408	10815.163
623.537	10867.827
623.665	10792.721
623.793	10864.923
623.921	10839.971
624.049	10817.846
624.177	10810.010
624.305	10780.279
624.433	10835.519
624.562	10794.577
624.690	10941.010
624.818	10741.654
624.946	10772.058
625.074	10754.683
625.202	10742.269
625.330	10748.519
625.458	10881.356
625.587	10748.519
625.715	10803.827
625.843	10771.692
625.971	10771.702
626.099	10753.452
626.227	10783.808
626.355	10740.827
626.483	10803.298
626.612	10736.279
626.740	10765.615
626.868	10729.173
626.996	10809.279
627.124	10773.538
627.252	10745.933
627.380	10757.288
627.508	10726.038
627.637	10780.115
627.765	10773.135
627.893	10787.548
628.021	10863.923
628.149	10782.885
628.277	10871.846
628.405	10823.913
628.533	10796.365
628.662	10837.865
628.790	10911.750
628.918	10822.769
629.046	10949.000
629.174	10812.894
629.302	10867.548
629.430	10775.548
629.558	10876.529
629.687	10814.990
629.815	10872.654
629.943	10980.308
630.071	10920.096
630.199	10887.798
630.327	10930.202
630.455	10968.365
630.583	10944.231
630.712	10945.115
630.840	10952.615
630.968	10933.500
631.096	10963.952
631.224	10974.442
631.352	11102.779
631.480	10994.875
631.608	11193.317
631.737	10977.750
631.865	11098.250
631.993	11082.356
632.121	11174.971
632.249	11053.769
632.377	11013.260
632.505	11047.577
632.633	11040.260
632.762	10985.346
632.890	11013.087
633.018	11025.654
633.146	11000.125
633.274	10972.654
633.402	11009.721
633.530	10956.154
633.658	10987.010
633.787	11012.558
633.915	10957.548
634.043	10967.462
634.171	10992.923
634.299	10973.067
634.427	10940.308
634.555	11179.462
634.683	10950.865
634.812	10940.452
634.940	10915.865
635.068	10889.231
635.196	10917.779
635.324	10873.317
635.452	10898.163
635.580	10971.240
635.708	10824.865
635.837	10868.394
635.965	10833.885
636.093	10800.529
636.221	10768.827
636.349	10727.471
636.477	10708.644
636.605	10736.163
636.733	10683.904
636.862	10679.192
636.990	10696.106
637.118	10629.567
637.246	10609.606
637.374	10728.048
637.502	10551.385
637.630	10543.125
637.758	10550.769
637.887	10446.875
638.015	10598.856
638.143	10536.231
638.271	10434.760
638.399	10471.279
638.527	10387.183
638.655	10394.231
638.783	10401.375
638.912	10413.240
639.040	10326.183
639.168	10318.808
639.296	10274.413
639.424	10379.269
639.552	10282.529
639.680	10333.269
639.808	10236.981
639.937	10225.231
640.065	10197.442
640.193	10184.779
640.321	10296.471
640.449	10276.298
640.577	10179.260
640.705	10181.923
640.833	10188.500
640.962	10241.856
641.090	10155.865
641.218	10150.250
641.346	10258.250
641.474	10114.904
641.602	10172.567
641.730	10135.538
641.858	10090.567
641.987	10101.875
642.115	10266.173
642.243	10140.760
642.371	10291.163
642.499	10116.827
642.627	10170.356
642.755	10070.250
642.883	10099.731
643.012	10108.798
643.140	10149.231
643.268	10125.029
643.396	10039.846
643.524	10070.606
643.652	10166.346
643.780	10056.663
643.908	10038.471
644.037	10167.029
644.165	10134.337
644.293	10261.125
644.421	10031.894
644.549	10119.269
644.677	10130.904
644.805	10039.971
644.933	10001.981
645.062	10085.279
645.190	10195.548
645.318	10093.096
645.446	9982.038
645.574	10001.692
645.702	10030.644
645.830	10033.971
645.958	9992.558
646.087	9981.635
646.215	9935.365
646.343	9932.462
646.471	10127.577
646.599	9947.240
646.727	9945.548
646.855	9949.606
646.983	9921.962
647.112	10000.106
647.240	9905.288
647.368	9962.606
647.496	9910.413
647.624	9895.827
647.752	9875.558
647.880	9854.721
648.008	9867.596
648.137	9919.510
648.265	9821.288
648.393	9881.779
648.521	9811.750
648.649	9928.519
648.777	9864.740
648.905	9790.942
649.033	9825.308
649.162	9699.779
649.290	9662.125
649.418	9692.788
649.546	9833.356
649.674	9654.548
649.802	9639.260
649.930	9613.558
650.058	9541.240
650.187	9605.135
650.315	9555.827
650.443	9580.010
650.571	9515.529
650.699	9472.913
650.827	9488.587
650.955	9423.760
651.083	9500.221
651.212	9392.740
651.340	9431.029
651.468	9345.404
651.596	9364.625
651.724	9396.865
651.852	9323.356
651.980	9332.288
652.108	9279.163
652.237	9291.317
652.365	9228.356
652.493	9239.817
652.621	9218.356
652.749	9218.913
652.877	9184.433
653.005	9202.115
653.133	9157.654
653.262	9111.279
653.390	9104.327
653.518	9233.750
653.646	9044.683
653.774	9025.404
653.902	9112.663
654.030	9041.558
654.158	8988.346
654.287	9036.663
654.415	8976.577
654.543	9020.577
654.671	8932.577
654.799	8956.212
654.927	8888.952
655.055	8866.981
655.183	8894.087
655.312	8865.279
655.440	8852.827
655.568	8821.038
655.696	8848.990
655.824	8821.452
655.952	8791.250
656.080	8703.327
656.208	8747.981
656.337	8777.500
656.465	8878.365
656.593	8683.394
656.721	8741.788
656.849	8773.635
656.977	8566.298
657.105	8617.452
657.233	8618.500
657.362	8690.394
657.490	8622.260
657.618	8591.683
657.746	8598.740
657.874	8491.923
658.002	8483.558
658.130	8419.019
658.258	8418.596
658.387	8378.058
658.515	8351.731
658.643	8363.702
658.771	8415.115
658.899	8291.635
659.027	8327.663
659.155	8309.202
659.283	8271.808
659.412	8255.413
659.540	8269.442
659.668	8303.365
659.796	8316.135
659.924	8265.260
660.052	8342.471
660.180	8224.596
660.308	8305.250
660.437	8284.375
660.565	8217.923
660.693	8113.721
660.821	8313.058
660.949	8105.010
661.077	8114.029
661.205	8256.933
661.333	8070.865
661.462	8042.529
661.590	8166.337
661.718	8058.837
661.846	8061.750
661.974	8017.587
662.102	8016.904
662.230	8017.558
662.358	7904.394
662.487	7963.923
662.615	7930.221
662.743	7933.442
662.871	7892.240
662.999	7818.452
663.127	7839.577
663.255	7821.827
663.383	7931.356
663.512	7740.952
663.640	7829.587
663.768	7814.952
663.896	7782.817
664.024	7756.894
664.152	7743.413
664.280	7814.615
664.408	7687.942
664.537	7685.221
664.665	7701.202
664.793	7667.240
664.921	7635.394
665.049	7699.615
665.177	7611.481
665.305	7648.942
665.433	7613.885
665.562	7735.077
665.690	7637.567
665.818	7736.433
665.946	7506.375
666.074	7533.856
666.202	7501.587
666.330	7479.471
666.458	7935.962
666.587	7457.865
666.715	7459.673
666.843	7436.885
666.971	7447.683
667.099	7480.452
667.227	7490.625
667.355	7499.202
667.483	7390.846
667.612	7423.827
667.740	7430.894
667.868	7360.375
667.996	7359.933
668.124	7371.308
668.252	7451.865
668.380	7330.231
668.508	7348.712
668.637	7302.029
668.765	7313.808
668.893	7293.260
669.021	7239.019
669.149	7291.846
669.277	7199.913
669.405	7328.433
669.533	7276.096
669.662	7201.913
669.790	7185.327
669.918	7227.837
670.046	7311.231
670.174	7103.115
670.302	7088.740
670.430	7053.413
670.558	7122.462
670.687	7238.721
670.815	7060.221
670.943	7100.385
671.071	6986.481
671.199	6959.615
671.327	7001.000
671.455	6995.952
671.583	6964.385
671.712	6921.260
671.840	7009.490
671.968	7080.596
672.096	7044.019
672.224	6852.404
672.352	6827.865
672.480	6798.096
672.608	6852.375
672.737	6785.865
672.865	6734.154
672.993	6734.962
673.121	6726.913
673.249	6716.221
673.377	6662.221
673.505	6644.798
673.633	6684.875
673.762	6637.192
673.890	6649.827
674.018	6655.625
674.146	6574.500
674.274	6563.942
674.402	6598.433
674.530	6536.356
674.658	6503.885
674.787	6460.692
674.915	6615.971
675.043	6453.673
675.171	6469.606
675.299	6394.606
675.427	6362.010
675.555	6370.904
675.683	6373.375
675.812	6343.481
675.940	6328.471
676.068	6248.721
676.196	6323.942
676.324	6246.635
676.452	6215.885
676.580	6163.490
676.708	6194.673
676.837	6165.558
676.965	6259.356
677.093	6305.346
677.221	6145.760
677.349	6068.279
677.477	6161.279
677.605	6022.663
677.733	6051.663
677.862	6057.837
677.990	6013.087
678.118	6079.702
678.246	5975.442
678.374	6027.510
678.502	5927.654
678.630	5889.067
678.758	5908.413
678.887	6030.163
679.015	5829.365
679.143	5808.029
679.271	5799.731
679.399	5794.587
679.527	5825.413
679.655	5851.250
679.783	5723.240
679.912	5719.327
680.040	5917.087
680.168	5696.135
680.296	5737.750
680.424	5688.933
680.552	5650.952
680.680	5640.904
680.808	5612.779
680.937	5572.038
681.065	5638.567
681.193	5539.885
681.321	5537.260
681.449	5582.644
681.577	5532.385
681.705	5492.317
681.833	5535.538
681.962	5500.077
682.090	5450.519
682.218	5470.798
682.346	5467.394
682.474	5416.587
682.602	5411.038
682.730	5449.529
682.858	5369.500
682.987	5374.721
683.115	5391.635
683.243	5367.538
683.371	5355.548
683.499	5337.721
683.627	5361.923
683.755	5306.423
683.883	5269.365
684.012	5321.144
684.140	5241.096
684.268	5270.135
684.396	5301.413
684.524	5233.798
684.652	5262.279
684.780	5253.875
684.908	5221.135
685.037	5238.087
685.165	5191.952
685.293	5257.183
685.421	5180.798
685.549	5172.635
685.677	5125.913
685.805	5159.202
685.933	5114.750
686.062	5152.067
686.190	5105.625
686.318	5091.260
686.446	5066.385
686.574	5008.202
686.702	5113.683
686.830	5022.337
686.958	5077.885
687.087	4973.769
687.215	5000.019
687.343	4982.288
687.471	5114.308
687.599	4907.683
687.727	4894.760
687.855	4889.981
687.983	4849.519
688.112	4930.644
688.240	4869.990
688.368	4878.981
688.496	4835.923
688.624	4794.308
688.752	4957.183
688.880	4802.279
689.008	4786.865
689.137	4785.837
689.265	4727.644
689.393	4724.529
689.521	4722.808
689.649	4818.212
689.777	4719.356
689.905	4772.423
690.033	4665.375
690.162	4627.875
690.290	4683.212
690.418	4600.942
690.546	4678.529
690.674	4648.615
690.802	4655.010
690.930	4617.413
691.058	4613.260
691.187	4559.250
691.315	4525.962
691.443	4526.202
691.571	4528.096
691.699	4478.048
691.827	4479.962
691.955	4472.663
692.083	4446.365
692.212	4457.894
692.340	4444.731
692.468	4482.000
692.596	4424.885
692.724	4396.913
692.852	4405.567
692.980	4418.740
693.108	4445.221
693.237	4339.317
693.365	4343.442
693.493	4315.740
693.621	4315.394
693.749	4271.144
693.877	4336.962
694.005	4240.971
694.133	4249.913
694.262	4290.067
694.390	4175.163
694.518	4226.058
694.646	4193.394
694.774	4123.933
694.902	4140.635
695.030	4132.962
695.158	4124.038
695.287	4122.827
695.415	4101.654
695.543	4086.510
695.671	4044.327
695.799	4146.529
695.927	4067.481
696.055	4037.202
696.183	3985.038
696.312	4146.490
696.440	4020.587
696.568	4009.423
696.696	3917.577
696.824	3898.644
696.952	3899.173
697.080	3889.712
697.208	3847.375
697.337	3855.413
697.465	3845.798
697.593	3805.490
697.721	3921.837
697.849	3801.356
697.977	3829.721
698.105	3844.240
698.233	3795.942
698.362	3745.702
698.490	3860.962
698.618	3699.769
698.746	3695.692
698.874	3769.038
699.002	3701.808
699.130	3713.654
699.258	3669.702
699.387	3618.673
699.515	3672.856
699.643	3662.990
699.771	3734.010
699.899	3614.038
700.027	3542.125
700.155	3624.587
700.283	3509.692
700.412	3529.298
700.540	3566.038
700.668	3602.077
700.796	3508.269
700.924	3541.798
701.052	3510.587
701.180	3510.673
701.308	3460.106
701.437	3418.913
701.565	3395.173
701.693	3453.625
701.821	3617.317
701.949	3362.298
702.077	3360.760
702.205	3426.529
702.333	3353.779
702.462	3310.442
702.590	3399.144
702.718	3280.654
702.846	3460.692
702.974	3271.298
703.102	3247.529
703.230	3284.721
703.358	3235.231
703.487	3231.933
703.615	3216.462
703.743	3190.471
703.871	3181.048
703.999	3164.404
704.127	3146.087
704.255	3116.106
704.383	3165.577
704.512	3210.058
704.640	3153.654
704.768	3237.317
704.896	3098.942
705.024	3044.567
705.152	3066.413
705.280	3112.923
705.408	3025.596
705.537	3006.702
705.665	3026.452
705.793	2993.442
705.921	2985.452
706.049	2948.462
706.177	3004.712
706.305	2952.240
706.433	2983.279
706.562	2942.596
706.690	2950.462
706.818	2947.452
706.946	2877.077
707.074	2857.019
707.202	2843.529
707.330	2852.510
707.458	2837.885
707.587	2794.279
707.715	2831.654
707.843	2865.404
707.971	2841.058
708.099	2752.356
708.227	2755.942
708.355	2765.683
708.483	2733.000
708.612	2761.404
708.740	2715.298
708.868	2698.442
708.996	2759.404
709.124	2759.144
709.252	2715.462
709.380	2723.356
709.508	2676.615
709.637	2692.673
709.765	2671.519
709.893	2711.212
710.021	2625.058
710.149	2745.683
710.277	2603.038
710.405	2627.942
710.533	2627.298
710.662	2599.442
710.790	2722.462
710.918	2580.240
711.046	2607.750
711.174	2565.337
711.302	2609.471
711.430	2557.692
711.558	2611.731
711.687	2578.490
711.815	2559.019
711.943	2529.029
712.071	2542.462
712.199	2559.529
712.327	2580.760
712.455	2538.827
712.583	2608.596
712.712	2530.567
712.840	2547.385
712.968	2517.856
713.096	2495.481
713.224	2481.721
713.352	2486.750
713.480	2473.250
713.608	2473.635
713.737	2468.135
713.865	2445.500
713.993	2463.692
714.121	2451.365
714.249	2438.788
714.377	2425.192
714.505	2441.462
714.633	2417.413
714.762	2405.221
714.890	2418.202
715.018	2404.317
715.146	2406.317
715.274	2371.856
715.402	2371.837
715.530	2367.596
715.658	2341.692
715.787	2341.394
715.915	2342.269
716.043	2341.288
716.171	2297.663
716.299	2286.692
716.427	2304.913
716.555	2312.798
716.683	2287.337
716.812	2280.269
716.940	2285.452
717.068	2277.981
717.196	2262.269
717.324	2242.625
717.452	2234.654
717.580	2246.510
717.708	2213.067
717.837	2202.404
717.965	2194.385
718.093	2213.577
718.221	2192.962
718.349	2182.663
718.477	2192.625
718.605	2181.385
718.733	2170.981
718.862	2158.856
718.990	2158.154
719.118	2157.356
719.246	2136.125
719.374	2111.500
719.502	2105.346
719.630	2119.452
719.758	2097.760
719.887	2087.212
720.015	2081.625
720.143	2074.846
720.271	2053.567
720.399	2075.875
720.527	2054.442
720.655	2041.337
720.783	2035.317
720.912	2016.740
721.040	2010.673
721.168	2018.250
721.296	1983.529
721.424	2017.135
721.552	1978.875
721.680	1967.471
721.808	1984.760
721.937	1968.471
722.065	1949.596
722.193	1948.010
722.321	1949.981
722.449	1937.519
722.577	1927.462
722.705	1904.327
722.833	1895.760
722.962	1892.885
723.090	1881.596
723.218	1861.606
723.346	1862.298
723.474	1871.260
723.602	1851.788
723.730	1849.462
723.858	1826.077
723.987	1855.433
724.115	1840.538
724.243	1828.510
724.371	1817.029
