Ref_Stop_wo_Pol_at_750.00nm_cut_at_1179.00Y_01.dat
03.07.2023
11:37:00
cut middle at Y: 1179.00
top cursor: 1231 down cursor: 1127 mean of: 104 lines , 2560 datapoints
wavelength(nm)	intensity[arb. units]
585.996	22797.279
586.124	22428.933
586.252	22400.144
586.380	22386.942
586.508	22474.510
586.637	22619.087
586.765	22625.625
586.893	22637.385
587.021	22744.894
587.149	22788.404
587.277	22855.721
587.405	22903.760
587.533	22976.875
587.662	22970.875
587.790	22933.471
587.918	22934.317
588.046	22936.702
588.174	22974.702
588.302	23027.423
588.430	23006.010
588.558	22965.577
588.687	23058.356
588.815	23042.202
588.943	23007.356
589.071	23020.769
589.199	23057.337
589.327	23058.462
589.455	23033.490
589.583	23007.538
589.712	22949.385
589.840	22920.279
589.968	23003.000
590.096	23040.183
590.224	23011.452
590.352	23139.221
590.480	23034.990
590.608	22951.327
590.737	23034.577
590.865	23055.490
590.993	22908.077
591.121	22960.279
591.249	22960.029
591.377	22947.875
591.505	23068.048
591.633	22964.394
591.762	22983.096
591.890	23012.519
592.018	23069.856
592.146	23036.385
592.274	23012.067
592.402	23051.788
592.530	23197.567
592.658	23107.221
592.787	23151.635
592.915	23185.587
593.043	23113.933
593.171	23199.827
593.299	23205.356
593.427	23217.596
593.555	23227.702
593.683	23206.740
593.812	23285.442
593.940	23324.173
594.068	23344.990
594.196	23321.788
594.324	23411.048
594.452	23631.827
594.580	23550.135
594.708	23589.462
594.837	23622.971
594.965	23705.971
595.093	23710.885
595.221	23867.942
595.349	23822.269
595.477	23900.087
595.605	23894.250
595.733	23910.067
595.862	23961.558
595.990	23913.538
596.118	24018.673
596.246	24100.308
596.374	24075.538
596.502	24095.837
596.630	24100.750
596.758	24140.394
596.887	24174.981
597.015	24211.990
597.143	24214.731
597.271	24161.115
597.399	24296.942
597.527	24235.375
597.655	24247.500
597.783	24257.981
597.912	24232.298
598.040	24290.385
598.168	24253.115
598.296	24183.490
598.424	24361.952
598.552	24204.654
598.680	24247.317
598.808	24313.327
598.937	24292.000
599.065	24261.096
599.193	24303.096
599.321	24284.192
599.449	24222.625
599.577	24212.279
599.705	24192.635
599.833	24170.644
599.962	24108.587
600.090	24166.990
600.218	24085.240
600.346	24116.462
600.474	24098.885
600.602	24098.058
600.730	24125.096
600.858	24179.010
600.987	24224.788
601.115	24109.212
601.243	24220.000
601.371	24252.385
601.499	24241.221
601.627	24311.971
601.755	24259.019
601.883	24282.817
602.012	24186.202
602.140	24290.538
602.268	24255.548
602.396	24443.702
602.524	24427.337
602.652	24542.923
602.780	24512.490
602.908	24584.990
603.037	24640.250
603.165	24694.712
603.293	24732.942
603.421	24759.260
603.549	24816.904
603.677	24872.731
603.805	24994.385
603.933	24994.731
604.062	25127.308
604.190	25245.115
604.318	25231.433
604.446	25208.894
604.574	25352.087
604.702	25367.721
604.830	25413.952
604.958	25492.442
605.087	25565.990
605.215	25714.779
605.343	25830.317
605.471	25823.837
605.599	25863.202
605.727	26045.702
605.855	26047.577
605.983	26046.087
606.112	26157.413
606.240	26147.433
606.368	26193.933
606.496	26179.567
606.624	26293.952
606.752	26217.817
606.880	26327.981
607.008	26324.337
607.137	26328.202
607.265	26439.385
607.393	26443.894
607.521	26478.587
607.649	26440.683
607.777	26415.433
607.905	26434.346
608.033	26401.394
608.162	26390.856
608.290	26397.250
608.418	26499.048
608.546	26510.365
608.674	26537.231
608.802	26391.721
608.930	26420.029
609.058	26398.750
609.187	26419.798
609.315	26330.269
609.443	26352.212
609.571	26424.923
609.699	26243.654
609.827	26289.115
609.955	26300.298
610.083	26202.452
610.212	26207.433
610.340	26170.500
610.468	26183.462
610.596	26109.423
610.724	26066.154
610.852	26145.327
610.980	26139.490
611.108	26112.029
611.237	26084.038
611.365	26105.000
611.493	26057.192
611.621	26062.740
611.749	26130.481
611.877	26112.250
612.005	26144.471
612.133	26118.500
612.262	26167.375
612.390	26213.837
612.518	26238.269
612.646	26260.269
612.774	26310.971
612.902	26325.558
613.030	26326.077
613.158	26317.798
613.287	26405.288
613.415	26327.462
613.543	26340.712
613.671	26399.154
613.799	26433.125
613.927	26511.029
614.055	26611.769
614.183	26566.058
614.312	26578.587
614.440	26758.240
614.568	26729.442
614.696	26812.019
614.824	26817.442
614.952	26877.519
615.080	26917.183
615.208	27004.471
615.337	27077.760
615.465	27038.817
615.593	27113.721
615.721	27094.769
615.849	27215.875
615.977	27228.798
616.105	27241.942
616.233	27361.760
616.362	27417.260
616.490	27454.769
616.618	27531.212
616.746	27613.990
616.874	27635.096
617.002	27703.558
617.130	27700.875
617.258	27647.837
617.387	27710.817
617.515	27765.673
617.643	27787.317
617.771	27834.923
617.899	27754.760
618.027	27834.279
618.155	27841.712
618.283	27853.433
618.412	27920.000
618.540	28029.250
618.668	27942.615
618.796	27954.625
618.924	27914.644
619.052	27946.375
619.180	27888.067
619.308	27853.529
619.437	27849.913
619.565	27894.923
619.693	27880.288
619.821	27901.317
619.949	27868.846
620.077	27867.385
620.205	27866.500
620.333	27881.106
620.462	27826.500
620.590	27898.433
620.718	27869.000
620.846	27918.183
620.974	27892.308
621.102	27888.288
621.230	27851.010
621.358	27962.798
621.487	27830.760
621.615	27798.952
621.743	27713.692
621.871	27760.615
621.999	27678.548
622.127	27688.038
622.255	27714.077
622.383	27640.865
622.512	27602.769
622.640	27612.308
622.768	27667.346
622.896	27703.846
623.024	27651.596
623.152	27585.952
623.280	27658.683
623.408	27646.038
623.537	27703.413
623.665	27563.654
623.793	27701.635
623.921	27612.471
624.049	27581.644
624.177	27561.394
624.305	27539.779
624.433	27504.529
624.562	27514.346
624.690	27605.106
624.818	27368.404
624.946	27361.135
625.074	27414.663
625.202	27364.462
625.330	27408.221
625.458	27515.654
625.587	27418.452
625.715	27437.163
625.843	27420.308
625.971	27460.885
626.099	27435.942
626.227	27411.923
626.355	27357.750
626.483	27402.260
626.612	27411.846
626.740	27478.740
626.868	27450.433
626.996	27475.519
627.124	27386.808
627.252	27385.385
627.380	27416.942
627.508	27389.192
627.637	27412.058
627.765	27510.644
627.893	27473.933
628.021	27532.135
628.149	27422.375
628.277	27514.635
628.405	27517.692
628.533	27490.192
628.662	27468.856
628.790	27629.115
628.918	27596.308
629.046	27721.288
629.174	27594.375
629.302	27692.048
629.430	27597.981
629.558	27691.087
629.687	27681.913
629.815	27727.587
629.943	27864.269
630.071	27826.788
630.199	27845.894
630.327	27844.106
630.455	27870.279
630.583	27854.625
630.712	27862.808
630.840	27941.712
630.968	27938.894
631.096	27960.692
631.224	27972.327
631.352	28098.750
631.480	28034.971
631.608	28184.625
631.737	28079.971
631.865	28139.654
631.993	28145.769
632.121	28315.635
632.249	28161.317
632.377	28178.846
632.505	28149.654
632.633	28212.904
632.762	28107.173
632.890	28167.519
633.018	28147.279
633.146	28085.067
633.274	28067.317
633.402	28145.654
633.530	28075.683
633.658	28065.837
633.787	28057.894
633.915	28031.471
634.043	28067.010
634.171	28042.433
634.299	28051.356
634.427	27957.163
634.555	28170.740
634.683	27984.202
634.812	27908.106
634.940	27814.712
635.068	27831.096
635.196	27780.500
635.324	27758.019
635.452	27728.673
635.580	27797.692
635.708	27657.442
635.837	27650.606
635.965	27597.106
636.093	27548.567
636.221	27457.308
636.349	27408.144
636.477	27327.154
636.605	27295.231
636.733	27284.856
636.862	27237.779
636.990	27197.904
637.118	27131.529
637.246	27030.029
637.374	27145.394
637.502	26901.567
637.630	26842.038
637.758	26856.663
637.887	26781.856
638.015	26860.154
638.143	26764.269
638.271	26599.163
638.399	26624.077
638.527	26579.144
638.655	26525.538
638.783	26455.875
638.912	26494.375
639.040	26363.981
639.168	26269.288
639.296	26213.894
639.424	26305.471
639.552	26261.442
639.680	26265.221
639.808	26123.144
639.937	26081.231
640.065	26124.308
640.193	26083.740
640.321	26135.913
640.449	26134.635
640.577	26017.798
640.705	26037.577
640.833	26004.096
640.962	26060.288
641.090	25890.904
641.218	25906.077
641.346	25955.913
641.474	25937.462
641.602	25864.135
641.730	25880.942
641.858	25880.010
641.987	25847.923
642.115	26006.904
642.243	25806.019
642.371	25915.202
642.499	25770.346
642.627	25775.567
642.755	25748.500
642.883	25732.596
643.012	25726.135
643.140	25778.337
643.268	25752.000
643.396	25675.760
643.524	25683.433
643.652	25775.510
643.780	25645.279
643.908	25628.298
644.037	25764.212
644.165	25735.712
644.293	25802.712
644.421	25598.096
644.549	25611.894
644.677	25614.558
644.805	25514.875
644.933	25489.798
645.062	25546.673
645.190	25656.135
645.318	25565.538
645.446	25433.010
645.574	25455.067
645.702	25512.606
645.830	25442.615
645.958	25421.163
646.087	25362.596
646.215	25352.913
646.343	25325.106
646.471	25480.288
646.599	25309.269
646.727	25303.625
646.855	25272.827
646.983	25231.567
647.112	25232.625
647.240	25201.250
647.368	25207.567
647.496	25170.702
647.624	25143.183
647.752	25069.702
647.880	25027.779
648.008	25017.683
648.137	25092.606
648.265	25025.077
648.393	25070.212
648.521	24893.260
648.649	25024.731
648.777	24915.269
648.905	24802.702
649.033	24834.212
649.162	24702.990
649.290	24587.740
649.418	24578.587
649.546	24744.067
649.674	24568.731
649.802	24520.885
649.930	24403.846
650.058	24359.115
650.187	24390.625
650.315	24302.106
650.443	24250.452
650.571	24172.644
650.699	24121.173
650.827	24031.827
650.955	24027.327
651.083	24029.067
651.212	23905.163
651.340	23904.000
651.468	23830.269
651.596	23771.606
651.724	23762.942
651.852	23653.692
651.980	23621.500
652.108	23575.481
652.237	23571.144
652.365	23475.721
652.493	23443.000
652.621	23412.942
652.749	23419.019
652.877	23347.798
653.005	23329.288
653.133	23266.019
653.262	23163.558
653.390	23119.673
653.518	23205.058
653.646	23067.288
653.774	23019.231
653.902	23083.500
654.030	22955.490
654.158	22943.115
654.287	22882.712
654.415	22842.606
654.543	22892.317
654.671	22755.923
654.799	22779.212
654.927	22694.404
655.055	22600.183
655.183	22605.221
655.312	22569.933
655.440	22513.000
655.568	22470.971
655.696	22500.923
655.824	22385.923
655.952	22366.894
656.080	22235.635
656.208	22288.481
656.337	22257.375
656.465	22402.250
656.593	22195.731
656.721	22176.538
656.849	22171.721
656.977	21954.721
657.105	21977.962
657.233	21975.827
657.362	22052.106
657.490	21949.144
657.618	21897.990
657.746	21846.317
657.874	21659.481
658.002	21588.288
658.130	21472.240
658.258	21496.538
658.387	21385.250
658.515	21367.125
658.643	21304.846
658.771	21393.712
658.899	21220.933
659.027	21235.962
659.155	21141.135
659.283	21085.077
659.412	21066.327
659.540	21012.663
659.668	21020.865
659.796	21109.490
659.924	21101.942
660.052	21100.212
660.180	21076.952
660.308	21080.712
660.437	21013.798
660.565	20902.702
660.693	20736.875
660.821	20899.269
660.949	20710.779
661.077	20715.365
661.205	20822.394
661.333	20660.365
661.462	20559.250
661.590	20634.413
661.718	20489.077
661.846	20492.673
661.974	20415.375
662.102	20396.433
662.230	20351.760
662.358	20173.798
662.487	20239.663
662.615	20240.962
662.743	20150.038
662.871	20189.885
662.999	20072.250
663.127	20027.587
663.255	20011.125
663.383	20087.817
663.512	19894.721
663.640	19910.654
663.768	19942.077
663.896	19874.615
664.024	19776.702
664.152	19803.837
664.280	19781.663
664.408	19657.433
664.537	19650.808
664.665	19643.990
664.793	19605.596
664.921	19561.048
665.049	19593.519
665.177	19462.202
665.305	19482.231
665.433	19453.115
665.562	19553.894
665.690	19417.163
665.818	19515.731
665.946	19302.769
666.074	19259.096
666.202	19226.038
666.330	19182.029
666.458	19467.183
666.587	19125.933
666.715	19088.846
666.843	19023.615
666.971	19018.048
667.099	18986.010
667.227	19025.019
667.355	18980.500
667.483	18869.875
667.612	18923.635
667.740	18866.317
667.868	18759.769
667.996	18806.269
668.124	18790.683
668.252	18862.894
668.380	18646.538
668.508	18673.538
668.637	18576.808
668.765	18575.760
668.893	18479.087
669.021	18464.087
669.149	18497.346
669.277	18361.356
669.405	18482.394
669.533	18411.067
669.662	18302.923
669.790	18291.817
669.918	18217.663
670.046	18353.538
670.174	18098.279
670.302	18097.058
670.430	18032.087
670.558	18036.692
670.687	18123.481
670.815	17897.048
670.943	17954.712
671.071	17828.683
671.199	17749.721
671.327	17769.933
671.455	17764.712
671.583	17674.029
671.712	17607.163
671.840	17644.769
671.968	17729.298
672.096	17678.288
672.224	17452.683
672.352	17436.413
672.480	17355.625
672.608	17360.952
672.737	17289.413
672.865	17224.394
672.993	17205.933
673.121	17118.481
673.249	17113.952
673.377	17003.471
673.505	16996.981
673.633	16999.202
673.762	16941.202
673.890	16917.183
674.018	16913.058
674.146	16819.510
674.274	16758.163
674.402	16784.971
674.530	16677.875
674.658	16604.654
674.787	16553.942
674.915	16644.385
675.043	16445.481
675.171	16461.519
675.299	16381.144
675.427	16289.202
675.555	16256.442
675.683	16261.654
675.812	16213.269
675.940	16142.952
676.068	16051.808
676.196	16052.596
676.324	15998.135
676.452	15901.250
676.580	15875.798
676.708	15783.471
676.837	15747.865
676.965	15850.356
677.093	15841.558
677.221	15674.808
677.349	15567.260
677.477	15650.529
677.605	15480.548
677.733	15522.606
677.862	15447.500
677.990	15424.769
678.118	15416.712
678.246	15304.471
678.374	15312.519
678.502	15195.423
678.630	15142.942
678.758	15140.019
678.887	15199.750
679.015	14983.433
679.143	14933.990
679.271	14923.413
679.399	14890.269
679.527	14842.644
679.655	14910.615
679.783	14788.125
679.912	14705.904
680.040	14827.452
680.168	14637.471
680.296	14624.769
680.424	14578.385
680.552	14500.433
680.680	14451.529
680.808	14438.923
680.937	14362.837
681.065	14388.038
681.193	14280.471
681.321	14253.779
681.449	14327.923
681.577	14214.856
681.705	14202.913
681.833	14170.106
681.962	14123.538
682.090	14041.654
682.218	14005.346
682.346	14015.952
682.474	13923.962
682.602	13939.865
682.730	13943.115
682.858	13828.721
682.987	13814.462
683.115	13806.750
683.243	13755.885
683.371	13754.404
683.499	13699.154
683.627	13695.577
683.755	13611.231
683.883	13581.462
684.012	13582.606
684.140	13522.000
684.268	13487.423
684.396	13517.298
684.524	13455.202
684.652	13450.962
684.780	13421.202
684.908	13343.106
685.037	13394.750
685.165	13330.144
685.293	13317.510
685.421	13308.240
685.549	13243.442
685.677	13146.375
685.805	13141.048
685.933	13093.183
686.062	13080.596
686.190	13021.260
686.318	13003.010
686.446	12945.462
686.574	12922.163
686.702	12934.644
686.830	12841.192
686.958	12890.317
687.087	12783.750
687.215	12764.875
687.343	12690.269
687.471	12885.596
687.599	12599.115
687.727	12602.067
687.855	12559.144
687.983	12531.212
688.112	12568.288
688.240	12450.827
688.368	12472.538
688.496	12394.077
688.624	12318.500
688.752	12495.000
688.880	12271.308
689.008	12273.279
689.137	12211.154
689.265	12156.048
689.393	12127.577
689.521	12129.058
689.649	12191.269
689.777	12082.298
689.905	12090.827
690.033	11940.971
690.162	11938.337
690.290	11959.904
690.418	11847.327
690.546	11895.202
690.674	11852.433
690.802	11834.952
690.930	11794.442
691.058	11740.827
691.187	11671.317
691.315	11646.885
691.443	11620.135
691.571	11605.769
691.699	11527.240
691.827	11460.519
691.955	11446.000
692.083	11416.875
692.212	11411.490
692.340	11406.163
692.468	11381.663
692.596	11345.587
692.724	11244.221
692.852	11274.615
692.980	11273.923
693.108	11273.000
693.237	11153.894
693.365	11101.260
693.493	11081.048
693.621	11067.221
693.749	10994.279
693.877	11022.077
694.005	10888.269
694.133	10840.731
694.262	10875.298
694.390	10772.635
694.518	10796.808
694.646	10744.115
694.774	10695.231
694.902	10608.000
695.030	10626.337
695.158	10561.885
695.287	10542.933
695.415	10526.231
695.543	10462.404
695.671	10406.038
695.799	10519.990
695.927	10361.250
696.055	10348.394
696.183	10269.385
696.312	10435.096
696.440	10261.058
696.568	10205.798
696.696	10105.913
696.824	10031.192
696.952	10042.010
697.080	10033.856
697.208	9947.029
697.337	9903.990
697.465	9906.933
697.593	9817.596
697.721	9912.462
697.849	9785.635
697.977	9774.808
698.105	9805.240
698.233	9744.510
698.362	9624.125
698.490	9783.913
698.618	9570.740
698.746	9542.981
698.874	9632.375
699.002	9519.442
699.130	9517.221
699.258	9418.817
699.387	9348.144
699.515	9357.692
699.643	9370.298
699.771	9427.692
699.899	9269.865
700.027	9202.067
700.155	9244.558
700.283	9116.038
700.412	9141.413
700.540	9152.144
700.668	9137.058
700.796	9029.452
700.924	9054.433
701.052	9020.779
701.180	9005.240
701.308	8880.394
701.437	8858.913
701.565	8814.500
701.693	8839.471
701.821	8989.971
701.949	8724.702
702.077	8754.779
702.205	8758.731
702.333	8658.337
702.462	8601.308
702.590	8663.798
702.718	8543.808
702.846	8693.317
702.974	8453.288
703.102	8463.240
703.230	8484.913
703.358	8421.923
703.487	8371.529
703.615	8330.798
703.743	8319.240
703.871	8277.846
703.999	8258.981
704.127	8213.548
704.255	8166.240
704.383	8160.125
704.512	8201.048
704.640	8148.942
704.768	8175.394
704.896	8036.010
705.024	7964.702
705.152	7944.212
705.280	7981.856
705.408	7880.663
705.537	7830.942
705.665	7820.615
705.793	7772.731
705.921	7756.029
706.049	7690.779
706.177	7713.221
706.305	7607.596
706.433	7671.067
706.562	7618.471
706.690	7607.683
706.818	7548.712
706.946	7467.077
707.074	7442.837
707.202	7408.019
707.330	7375.750
707.458	7373.529
707.587	7283.135
707.715	7324.817
707.843	7325.673
707.971	7293.077
708.099	7193.471
708.227	7173.558
708.355	7155.962
708.483	7094.404
708.612	7136.462
708.740	7033.721
708.868	7042.317
708.996	7098.615
709.124	7019.788
709.252	6964.942
709.380	6975.875
709.508	6904.913
709.637	6891.990
709.765	6889.990
709.893	6901.519
710.021	6778.567
710.149	6888.827
710.277	6743.558
710.405	6737.000
710.533	6713.837
710.662	6662.885
710.790	6782.894
710.918	6603.885
711.046	6631.865
711.174	6577.058
711.302	6619.365
711.430	6540.308
711.558	6537.606
711.687	6508.673
711.815	6459.885
711.943	6393.317
712.071	6410.615
712.199	6412.894
712.327	6440.250
712.455	6312.548
712.583	6470.490
712.712	6337.933
712.840	6339.375
712.968	6260.894
713.096	6232.885
713.224	6200.442
713.352	6170.808
713.480	6107.673
713.608	6087.452
713.737	6068.029
713.865	6128.865
713.993	6044.808
714.121	6048.356
714.249	5996.077
714.377	5969.365
714.505	5944.058
714.633	5908.673
714.762	5894.577
714.890	5880.356
715.018	5856.404
715.146	5885.731
715.274	5816.442
715.402	5811.894
715.530	5773.942
715.658	5792.346
715.787	5750.702
715.915	5811.192
716.043	5693.962
716.171	5829.827
716.299	5629.663
716.427	5699.567
716.555	5616.673
716.683	5596.692
716.812	5563.644
716.940	5548.327
717.068	5522.000
717.196	5653.827
717.324	5517.481
717.452	5455.221
717.580	5519.135
717.708	5413.663
717.837	5418.779
717.965	5427.433
718.093	5358.702
718.221	5400.462
718.349	5419.913
718.477	5318.587
718.605	5383.192
718.733	5289.683
718.862	5299.865
718.990	5230.240
719.118	5276.702
719.246	5178.288
719.374	5164.452
719.502	5185.875
719.630	5258.048
719.758	5092.433
719.887	5069.837
720.015	5112.192
720.143	5121.356
720.271	4982.885
720.399	5056.712
720.527	4988.077
