70_90_0_Pol_at_750.00nm_cut_at_1179.00Y_01.dat
03.07.2023
10:51:07
cut middle at Y: 1179.00
top cursor: 1231 down cursor: 1127 mean of: 104 lines , 2560 datapoints
wavelength(nm)	intensity[arb. units]
585.996	21660.779
586.124	20974.558
586.252	20949.933
586.380	21099.010
586.508	21076.048
586.637	21267.712
586.765	21232.942
586.893	21304.019
587.021	21299.010
587.149	21418.548
587.277	21366.375
587.405	21419.673
587.533	21394.375
587.662	21549.731
587.790	21432.875
587.918	21436.260
588.046	21384.712
588.174	21397.433
588.302	21387.327
588.430	21412.356
588.558	21405.231
588.687	21485.413
588.815	21364.423
588.943	21383.731
589.071	21400.231
589.199	21454.240
589.327	21426.510
589.455	21458.837
589.583	21398.538
589.712	21434.404
589.840	21359.096
589.968	21322.212
590.096	21458.779
590.224	21447.452
590.352	21472.067
590.480	21380.558
590.608	21377.192
590.737	21311.096
590.865	21427.952
590.993	21254.538
591.121	21418.740
591.249	21328.760
591.377	21331.654
591.505	21413.837
591.633	21325.000
591.762	21421.798
591.890	21361.731
592.018	21475.644
592.146	21422.788
592.274	21398.625
592.402	21387.529
592.530	21557.606
592.658	21444.596
592.787	21460.635
592.915	21444.202
593.043	21369.923
593.171	21417.865
593.299	21470.885
593.427	21448.433
593.555	21530.404
593.683	21504.538
593.812	21490.654
593.940	21503.606
594.068	21490.587
594.196	21593.894
594.324	21429.702
594.452	21753.865
594.580	21575.260
594.708	21616.962
594.837	21589.087
594.965	21736.163
595.093	21661.010
595.221	21833.875
595.349	21726.029
595.477	21693.067
595.605	21818.846
595.733	21760.894
595.862	21781.317
595.990	21813.250
596.118	21834.442
596.246	21887.394
596.374	21839.317
596.502	21807.904
596.630	21880.567
596.758	21837.692
596.887	21943.510
597.015	21799.846
597.143	21929.942
597.271	21849.577
597.399	21939.538
597.527	21822.337
597.655	21980.010
597.783	21881.596
597.912	21935.885
598.040	21935.663
598.168	21929.087
598.296	21815.615
598.424	22017.712
598.552	21914.846
598.680	21924.135
598.808	21941.000
598.937	21843.692
599.065	21920.433
599.193	21889.183
599.321	21918.962
599.449	21817.163
599.577	21833.942
599.705	21809.250
599.833	21811.904
599.962	21838.000
600.090	21847.731
600.218	21826.740
600.346	21841.519
600.474	21751.038
600.602	21754.221
600.730	21827.529
600.858	21849.462
600.987	21803.798
601.115	21758.106
601.243	21795.202
601.371	21855.712
601.499	21799.163
601.627	21844.279
601.755	21853.279
601.883	21894.846
602.012	21760.817
602.140	21834.558
602.268	21778.096
602.396	21926.663
602.524	21866.644
602.652	21993.163
602.780	21961.096
602.908	21989.288
603.037	22010.750
603.165	22043.433
603.293	21961.154
603.421	22043.587
603.549	22090.240
603.677	22049.365
603.805	22102.471
603.933	22156.625
604.062	22264.317
604.190	22277.327
604.318	22311.423
604.446	22255.894
604.574	22334.548
604.702	22355.740
604.830	22425.683
604.958	22396.240
605.087	22438.442
605.215	22536.125
605.343	22568.933
605.471	22549.317
605.599	22511.981
605.727	22596.692
605.855	22628.769
605.983	22649.346
606.112	22681.010
606.240	22694.394
606.368	22711.615
606.496	22670.548
606.624	22791.019
606.752	22696.327
606.880	22717.519
607.008	22801.442
607.137	22821.615
607.265	22837.913
607.393	22884.788
607.521	22896.731
607.649	22871.712
607.777	22737.038
607.905	22894.231
608.033	22824.567
608.162	22846.365
608.290	22849.500
608.418	22882.231
608.546	22924.904
608.674	22920.279
608.802	22813.404
608.930	22857.692
609.058	22871.096
609.187	22854.202
609.315	22913.904
609.443	22812.356
609.571	22852.346
609.699	22825.346
609.827	22938.606
609.955	22823.077
610.083	22773.577
610.212	22799.808
610.340	22750.885
610.468	22812.327
610.596	22793.692
610.724	22762.385
610.852	22798.077
610.980	22795.019
611.108	22754.250
611.237	22728.433
611.365	22766.279
611.493	22725.635
611.621	22748.846
611.749	22662.692
611.877	22724.067
612.005	22749.798
612.133	22802.260
612.262	22777.663
612.390	22800.865
612.518	22845.885
612.646	22835.990
612.774	22868.490
612.902	22807.567
613.030	22857.702
613.158	22857.038
613.287	22945.702
613.415	22798.750
613.543	22818.481
613.671	22878.644
613.799	22850.038
613.927	22855.125
614.055	23025.875
614.183	22972.087
614.312	22963.337
614.440	23024.808
614.568	23030.173
614.696	23040.385
614.824	23105.087
614.952	23052.692
615.080	23086.269
615.208	23212.625
615.337	23295.442
615.465	23163.183
615.593	23258.106
615.721	23160.740
615.849	23284.817
615.977	23306.500
616.105	23331.865
616.233	23356.817
616.362	23363.144
616.490	23283.346
616.618	23361.971
616.746	23493.981
616.874	23478.644
617.002	23439.096
617.130	23428.567
617.258	23391.865
617.387	23457.885
617.515	23465.135
617.643	23494.173
617.771	23543.808
617.899	23515.933
618.027	23559.683
618.155	23527.779
618.283	23587.327
618.412	23595.048
618.540	23706.692
618.668	23641.490
618.796	23593.077
618.924	23556.606
619.052	23589.115
619.180	23605.808
619.308	23559.712
619.437	23488.750
619.565	23616.567
619.693	23534.952
619.821	23645.385
619.949	23555.096
620.077	23589.846
620.205	23661.221
620.333	23694.529
620.462	23606.798
620.590	23631.548
620.718	23672.683
620.846	23647.029
620.974	23626.106
621.102	23631.942
621.230	23688.760
621.358	23753.231
621.487	23718.529
621.615	23649.933
621.743	23567.413
621.871	23668.183
621.999	23598.875
622.127	23585.548
622.255	23552.240
622.383	23602.385
622.512	23576.702
622.640	23556.394
622.768	23530.990
622.896	23655.048
623.024	23598.394
623.152	23577.731
623.280	23609.260
623.408	23624.135
623.537	23701.750
623.665	23609.538
623.793	23636.087
623.921	23636.740
624.049	23546.308
624.177	23607.250
624.305	23475.000
624.433	23517.913
624.562	23591.962
624.690	23673.683
624.818	23597.875
624.946	23564.192
625.074	23494.673
625.202	23518.000
625.330	23522.010
625.458	23659.452
625.587	23540.837
625.715	23564.096
625.843	23604.894
625.971	23594.260
626.099	23619.298
626.227	23589.885
626.355	23512.990
626.483	23561.106
626.612	23536.827
626.740	23568.192
626.868	23518.327
626.996	23681.433
627.124	23542.048
627.252	23531.962
627.380	23594.933
627.508	23529.721
627.637	23534.933
627.765	23654.577
627.893	23568.442
628.021	23657.144
628.149	23553.327
628.277	23664.587
628.405	23614.731
628.533	23624.673
628.662	23596.096
628.790	23766.577
628.918	23683.769
629.046	23776.875
629.174	23653.221
629.302	23692.904
629.430	23725.154
629.558	23737.875
629.687	23681.558
629.815	23755.615
629.943	23831.231
630.071	23747.010
630.199	23795.500
630.327	23842.596
630.455	23768.250
630.583	23835.413
630.712	23826.019
630.840	23828.519
630.968	23791.788
631.096	23830.452
631.224	23799.269
631.352	23919.885
631.480	23917.567
631.608	24061.308
631.737	23878.548
631.865	24014.577
631.993	23976.000
632.121	24072.115
632.249	23945.231
632.377	23869.683
632.505	23931.923
632.633	24059.394
632.762	23932.808
632.890	23963.625
633.018	23950.952
633.146	23924.500
633.274	23978.260
633.402	24007.144
633.530	23920.404
633.658	23930.375
633.787	23920.327
633.915	23969.471
634.043	23953.394
634.171	23939.923
634.299	23965.548
634.427	23933.385
634.555	24204.433
634.683	23951.394
634.812	24018.106
634.940	23933.019
635.068	23969.288
635.196	23890.038
635.324	23806.462
635.452	23883.913
635.580	23985.548
635.708	23859.635
635.837	23884.558
635.965	23889.337
636.093	23811.731
636.221	23818.115
636.349	23762.019
636.477	23721.519
636.605	23773.500
636.733	23724.740
636.862	23711.663
636.990	23766.904
637.118	23702.000
637.246	23629.250
637.374	23803.558
637.502	23582.269
637.630	23684.760
637.758	23569.644
637.887	23538.260
638.015	23663.837
638.143	23620.558
638.271	23494.721
638.399	23508.962
638.527	23472.221
638.655	23455.125
638.783	23549.298
638.912	23456.654
639.040	23363.173
639.168	23304.413
639.296	23420.644
639.424	23424.846
639.552	23286.413
639.680	23329.173
639.808	23300.837
639.937	23284.673
640.065	23287.385
640.193	23362.317
640.321	23369.760
640.449	23371.144
640.577	23285.913
640.705	23256.308
640.833	23255.654
640.962	23342.567
641.090	23202.865
641.218	23268.192
641.346	23297.663
641.474	23273.567
641.602	23278.913
641.730	23204.712
641.858	23237.183
641.987	23246.404
642.115	23343.750
642.243	23318.779
642.371	23373.798
642.499	23262.385
642.627	23311.942
642.755	23276.654
642.883	23271.558
643.012	23216.750
643.140	23369.365
643.268	23336.567
643.396	23269.750
643.524	23298.019
643.652	23337.106
643.780	23246.990
643.908	23344.365
644.037	23379.606
644.165	23369.740
644.293	23470.356
644.421	23281.308
644.549	23447.423
644.677	23367.356
644.805	23332.317
644.933	23338.308
645.062	23293.038
645.190	23457.952
645.318	23307.385
645.446	23332.202
645.574	23321.327
645.702	23372.346
645.830	23345.288
645.958	23222.548
646.087	23264.702
646.215	23255.019
646.343	23292.385
646.471	23341.990
646.599	23193.548
646.727	23170.606
646.855	23277.558
646.983	23254.779
647.112	23296.000
647.240	23239.163
647.368	23250.317
647.496	23187.702
647.624	23180.183
647.752	23199.981
647.880	23135.442
648.008	23216.433
648.137	23211.683
648.265	23086.942
648.393	23138.692
648.521	23031.865
648.649	23300.308
648.777	23094.279
648.905	23081.779
649.033	23119.298
649.162	23034.442
649.290	22864.885
649.418	22959.894
649.546	23077.663
649.674	22959.279
649.802	22823.452
649.930	22839.692
650.058	22777.692
650.187	22831.865
650.315	22791.115
650.443	22769.808
650.571	22678.442
650.699	22672.192
650.827	22712.587
650.955	22622.183
651.083	22719.385
651.212	22527.971
651.340	22531.817
651.468	22522.308
651.596	22551.760
651.724	22539.471
651.852	22486.038
651.980	22501.087
652.108	22461.019
652.237	22473.615
652.365	22426.942
652.493	22385.663
652.621	22308.981
652.749	22267.163
652.877	22280.635
653.005	22279.240
653.133	22310.029
653.262	22215.087
653.390	22155.933
653.518	22314.913
653.646	22174.077
653.774	22103.365
653.902	22191.952
654.030	22039.692
654.158	22021.875
654.287	22047.490
654.415	21930.942
654.543	22037.990
654.671	21983.933
654.799	21908.760
654.927	21947.760
655.055	21896.058
655.183	21833.846
655.312	21842.221
655.440	21730.635
655.568	21746.529
655.696	21798.279
655.824	21796.192
655.952	21758.173
656.080	21617.144
656.208	21680.202
656.337	21719.865
656.465	21862.577
656.593	21623.750
656.721	21661.692
656.849	21692.990
656.977	21417.154
657.105	21471.837
657.233	21535.538
657.362	21488.212
657.490	21510.635
657.618	21377.221
657.746	21508.760
657.874	21338.990
658.002	21247.087
658.130	21222.577
658.258	21224.788
658.387	21173.163
658.515	21187.827
658.643	21191.894
658.771	21188.942
658.899	21050.750
659.027	21074.663
659.155	21019.663
659.283	20955.010
659.412	21026.644
659.540	20956.058
659.668	21086.462
659.796	21027.577
659.924	21061.933
660.052	21108.548
660.180	21009.269
660.308	21063.827
660.437	21017.365
660.565	20965.981
660.693	20939.846
660.821	21041.308
660.949	20827.260
661.077	20885.962
661.205	20993.385
661.333	20847.067
661.462	20758.221
661.590	20772.462
661.718	20708.144
661.846	20771.779
661.974	20787.250
662.102	20704.317
662.230	20660.885
662.358	20638.221
662.487	20655.010
662.615	20526.788
662.743	20585.452
662.871	20513.962
662.999	20517.413
663.127	20499.625
663.255	20567.846
663.383	20599.567
663.512	20402.154
663.640	20431.529
663.768	20433.769
663.896	20369.490
664.024	20399.337
664.152	20362.837
664.280	20426.808
664.408	20293.827
664.537	20310.942
664.665	20270.154
664.793	20292.327
664.921	20214.135
665.049	20342.135
665.177	20243.077
665.305	20236.962
665.433	20238.029
665.562	20367.288
665.690	20197.404
665.818	20260.481
665.946	20124.346
666.074	20075.577
666.202	20138.644
666.330	20035.913
666.458	20438.875
666.587	19993.971
666.715	19933.288
666.843	19944.115
666.971	20009.875
667.099	19992.163
667.227	20002.058
667.355	19976.163
667.483	19938.548
667.612	19950.250
667.740	19803.183
667.868	19874.923
667.996	19760.356
668.124	19813.202
668.252	19847.875
668.380	19833.250
668.508	19831.596
668.637	19734.038
668.765	19701.288
668.893	19646.183
669.021	19607.952
669.149	19644.087
669.277	19548.202
669.405	19618.606
669.533	19636.490
669.662	19495.317
669.790	19503.683
669.918	19508.375
670.046	19556.731
670.174	19398.490
670.302	19379.846
670.430	19308.673
670.558	19352.010
670.687	19426.769
670.815	19249.260
670.943	19252.606
671.071	19128.029
671.199	19127.115
671.327	19135.250
671.455	19127.606
671.583	19093.654
671.712	19016.144
671.840	19016.135
671.968	19151.510
672.096	19015.712
672.224	18828.913
672.352	18866.471
672.480	18786.385
672.608	18756.567
672.737	18711.356
672.865	18629.990
672.993	18571.240
673.121	18591.154
673.249	18504.106
673.377	18531.788
673.505	18445.712
673.633	18475.356
673.762	18431.673
673.890	18336.442
674.018	18399.279
674.146	18310.865
674.274	18287.981
674.402	18304.712
674.530	18166.087
674.658	18088.567
674.787	18075.721
674.915	18186.337
675.043	18088.385
675.171	17980.769
675.299	17895.490
675.427	17891.096
675.555	17856.337
675.683	17827.154
675.812	17721.731
675.940	17719.990
676.068	17664.067
676.196	17681.212
676.324	17512.529
676.452	17482.731
676.580	17417.971
676.708	17413.788
676.837	17344.365
676.965	17432.856
677.093	17499.452
677.221	17269.269
677.349	17133.683
677.477	17221.337
677.605	17155.875
677.733	17029.048
677.862	17057.077
677.990	17032.413
678.118	17007.577
678.246	16955.712
678.374	16922.635
678.502	16829.250
678.630	16806.798
678.758	16781.519
678.887	16841.596
679.015	16626.115
679.143	16585.452
679.271	16566.038
679.399	16509.837
679.527	16494.490
679.655	16578.654
679.783	16385.423
679.912	16383.673
680.040	16485.962
680.168	16256.933
680.296	16235.433
680.424	16215.644
680.552	16171.029
680.680	16144.644
680.808	16040.135
680.937	16049.115
681.065	15998.865
681.193	15928.663
681.321	15936.510
681.449	15941.779
681.577	15879.019
681.705	15880.519
681.833	15883.308
681.962	15759.894
682.090	15675.433
682.218	15726.356
682.346	15677.673
682.474	15605.260
682.602	15594.913
682.730	15621.308
682.858	15502.337
682.987	15513.865
683.115	15484.067
683.243	15468.375
683.371	15410.163
683.499	15341.346
683.627	15385.712
683.755	15313.413
683.883	15324.231
684.012	15307.125
684.140	15182.375
684.268	15243.606
684.396	15227.846
684.524	15189.087
684.652	15185.058
684.780	15145.827
684.908	15168.721
685.037	15181.356
685.165	15061.904
685.293	15084.587
685.421	15094.471
685.549	15023.202
685.677	14940.144
685.805	15019.288
685.933	14933.048
686.062	14893.606
686.190	14888.452
686.318	14833.385
686.446	14835.010
686.574	14763.904
686.702	14799.510
686.830	14702.471
686.958	14748.298
687.087	14669.019
687.215	14678.654
687.343	14619.779
687.471	14769.952
687.599	14491.519
687.727	14491.962
687.855	14451.981
687.983	14418.298
688.112	14429.096
688.240	14361.529
688.368	14385.827
688.496	14239.125
688.624	14250.087
688.752	14403.779
688.880	14249.298
689.008	14168.942
689.137	14205.952
689.265	14087.365
689.393	14093.702
689.521	14050.413
689.649	14127.231
689.777	14005.846
689.905	14035.519
690.033	13918.115
690.162	13868.625
690.290	13860.010
690.418	13822.837
690.546	13799.683
690.674	13776.962
690.802	13711.106
690.930	13683.923
691.058	13638.269
691.187	13572.375
691.315	13509.163
691.443	13486.279
691.571	13487.962
691.699	13416.683
691.827	13383.125
691.955	13328.731
692.083	13288.404
692.212	13243.462
692.340	13230.596
692.468	13213.375
692.596	13158.298
692.724	13069.029
692.852	13080.183
692.980	13035.183
693.108	13026.933
693.237	12901.337
693.365	12856.856
693.493	12804.538
693.621	12758.952
693.749	12694.894
693.877	12752.212
694.005	12621.481
694.133	12547.827
694.262	12600.962
694.390	12467.212
694.518	12463.269
694.646	12405.106
694.774	12323.231
694.902	12291.115
695.030	12253.635
695.158	12200.663
695.287	12176.990
695.415	12125.269
695.543	12111.510
695.671	11966.183
695.799	12108.875
695.927	11929.442
696.055	11910.423
696.183	11779.981
696.312	11945.423
696.440	11762.615
696.568	11780.221
696.696	11648.298
696.824	11543.183
696.952	11566.327
697.080	11519.490
697.208	11416.442
697.337	11394.490
697.465	11365.827
697.593	11276.317
697.721	11353.683
697.849	11217.731
697.977	11206.385
698.105	11220.712
698.233	11130.788
698.362	11018.250
698.490	11117.827
698.618	10953.865
698.746	10906.375
698.874	10945.173
699.002	10870.942
699.130	10864.654
699.258	10776.635
699.387	10683.019
699.515	10729.615
699.643	10644.606
699.771	10668.875
699.899	10526.308
700.027	10491.365
700.155	10529.279
700.283	10342.596
700.412	10333.750
700.540	10349.558
700.668	10397.615
700.796	10239.712
700.924	10242.942
701.052	10200.346
701.180	10165.250
701.308	10049.817
701.437	10028.106
701.565	9989.327
701.693	9974.317
701.821	10105.894
701.949	9851.894
702.077	9796.606
702.205	9857.115
702.333	9743.740
702.462	9669.087
702.590	9703.471
702.718	9585.798
702.846	9717.144
702.974	9516.846
703.102	9449.885
703.230	9461.019
703.358	9368.769
703.487	9344.413
703.615	9287.529
703.743	9256.740
703.871	9190.923
703.999	9174.308
704.127	9119.567
704.255	9054.288
704.383	9046.163
704.512	9083.231
704.640	8985.490
704.768	9032.365
704.896	8873.865
705.024	8800.308
705.152	8776.481
705.280	8807.375
705.408	8697.067
705.537	8654.144
705.665	8615.971
705.793	8574.298
705.921	8529.654
706.049	8462.067
706.177	8474.125
706.305	8398.952
706.433	8421.904
706.562	8356.260
706.690	8346.404
706.818	8312.731
706.946	8206.250
707.074	8145.894
707.202	8092.154
707.330	8106.452
707.458	8026.760
707.587	7990.808
707.715	7966.788
707.843	7973.606
707.971	7982.000
708.099	7858.894
708.227	7804.827
708.355	7809.135
708.483	7732.442
708.612	7721.442
708.740	7625.952
708.868	7632.865
708.996	7677.529
709.124	7628.769
709.252	7558.067
709.380	7536.125
709.508	7437.933
709.637	7468.981
709.765	7414.308
709.893	7434.462
710.021	7338.000
710.149	7447.423
710.277	7272.615
710.405	7251.115
710.533	7234.279
710.662	7176.202
710.790	7296.548
710.918	7112.385
711.046	7155.250
711.174	7091.519
711.302	7112.346
711.430	7035.865
711.558	7056.288
711.687	7000.779
711.815	6932.308
711.943	6910.644
712.071	6869.788
712.199	6909.923
712.327	6914.010
712.455	6813.721
712.583	6932.317
712.712	6775.096
712.840	6768.135
712.968	6689.288
713.096	6679.750
713.224	6634.288
713.352	6605.788
713.480	6542.308
713.608	6498.048
713.737	6492.173
713.865	6529.288
713.993	6482.779
714.121	6448.702
714.249	6364.567
714.377	6348.673
714.505	6327.481
714.633	6317.712
714.762	6300.067
714.890	6268.212
715.018	6243.798
715.146	6255.115
715.274	6162.702
715.402	6158.481
715.530	6137.154
715.658	6147.183
715.787	6081.288
715.915	6147.894
716.043	6026.279
716.171	6123.865
716.299	5965.808
716.427	6006.962
716.555	5910.135
716.683	5913.375
716.812	5868.192
716.940	5837.837
717.068	5799.250
717.196	5910.990
717.324	5783.587
717.452	5759.712
717.580	5782.500
717.708	5659.923
717.837	5679.846
717.965	5696.635
718.093	5622.029
718.221	5658.529
718.349	5626.769
718.477	5555.875
718.605	5617.913
718.733	5518.442
718.862	5532.288
718.990	5428.558
719.118	5494.625
719.246	5388.462
719.374	5363.510
719.502	5391.885
719.630	5443.471
719.758	5291.548
719.887	5270.298
720.015	5280.702
720.143	5293.077
720.271	5166.337
