Ref_Start_0_Pol_at_750.00nm_cut_at_1184.50Y_01.dat
03.07.2023
10:44:06
cut middle at Y: 1184.50
top cursor: 1231 down cursor: 1138 mean of: 93 lines , 2560 datapoints
wavelength(nm)	intensity[arb. units]
585.996	10428.914
586.124	10231.989
586.252	10245.699
586.380	10260.667
586.508	10294.978
586.637	10367.129
586.765	10316.624
586.893	10375.559
587.021	10428.667
587.149	10409.645
587.277	10437.624
587.405	10411.000
587.533	10497.559
587.662	10508.699
587.790	10449.280
587.918	10439.398
588.046	10421.000
588.174	10475.376
588.302	10443.419
588.430	10477.237
588.558	10479.710
588.687	10502.419
588.815	10465.376
588.943	10517.624
589.071	10491.559
589.199	10473.677
589.327	10469.462
589.455	10514.140
589.583	10466.796
589.712	10479.376
589.840	10437.656
589.968	10453.860
590.096	10469.473
590.224	10477.237
590.352	10497.366
590.480	10470.280
590.608	10429.355
590.737	10450.043
590.865	10567.935
590.993	10417.570
591.121	10446.505
591.249	10413.774
591.377	10450.914
591.505	10528.419
591.633	10441.817
591.762	10437.581
591.890	10436.710
592.018	10557.301
592.146	10479.097
592.274	10463.699
592.402	10450.656
592.530	10651.989
592.658	10513.957
592.787	10516.398
592.915	10563.398
593.043	10488.925
593.171	10525.946
593.299	10496.785
593.427	10507.269
593.555	10513.667
593.683	10525.763
593.812	10573.699
593.940	10563.290
594.068	10557.645
594.196	10564.215
594.324	10572.731
594.452	10771.688
594.580	10641.376
594.708	10697.011
594.837	10641.806
594.965	10749.849
595.093	10683.473
595.221	10744.086
595.349	10740.925
595.477	10766.946
595.605	10775.538
595.733	10757.387
595.862	10792.667
595.990	10833.247
596.118	10854.731
596.246	10911.419
596.374	10859.204
596.502	10874.742
596.630	10911.699
596.758	10885.978
596.887	10897.548
597.015	10884.280
597.143	10911.914
597.271	10896.570
597.399	10948.742
597.527	10903.183
597.655	10936.892
597.783	10926.903
597.912	10926.409
598.040	10994.118
598.168	10911.430
598.296	10894.290
598.424	11076.731
598.552	10906.527
598.680	10914.559
598.808	10995.151
598.937	10909.925
599.065	10923.903
599.193	10987.194
599.321	10975.699
599.449	10888.957
599.577	10922.473
599.705	10918.774
599.833	10905.215
599.962	10871.892
600.090	10889.312
600.218	10853.591
600.346	10839.968
600.474	10852.290
600.602	10829.667
600.730	10813.215
600.858	10840.065
600.987	10864.677
601.115	10873.839
601.243	10944.204
601.371	10923.118
601.499	10884.538
601.627	10885.645
601.755	10845.860
601.883	10920.333
602.012	10802.398
602.140	10901.387
602.268	10879.118
602.396	11002.538
602.524	10890.290
602.652	10987.613
602.780	10959.172
602.908	10964.075
603.037	11025.183
603.165	11041.763
603.293	11014.043
603.421	11059.710
603.549	11069.194
603.677	11073.935
603.805	11089.968
603.933	11138.409
604.062	11166.280
604.190	11226.344
604.318	11224.323
604.446	11221.108
604.574	11295.495
604.702	11303.753
604.830	11259.161
604.958	11314.194
605.087	11351.720
605.215	11403.527
605.343	11533.785
605.471	11491.312
605.599	11505.957
605.727	11559.516
605.855	11557.129
605.983	11620.280
606.112	11666.226
606.240	11616.699
606.368	11627.882
606.496	11638.226
606.624	11732.151
606.752	11649.763
606.880	11718.796
607.008	11700.699
607.137	11670.624
607.265	11796.387
607.393	11762.892
607.521	11833.495
607.649	11756.645
607.777	11762.968
607.905	11789.409
608.033	11758.817
608.162	11776.172
608.290	11774.591
608.418	11872.097
608.546	11837.785
608.674	11817.699
608.802	11768.258
608.930	11789.860
609.058	11699.215
609.187	11743.624
609.315	11752.032
609.443	11709.538
609.571	11831.570
609.699	11690.495
609.827	11787.366
609.955	11720.828
610.083	11645.301
610.212	11659.312
610.340	11686.000
610.468	11656.398
610.596	11668.957
610.724	11614.140
610.852	11667.505
610.980	11659.570
611.108	11617.398
611.237	11627.559
611.365	11631.925
611.493	11625.183
611.621	11595.688
611.749	11617.978
611.877	11696.366
612.005	11614.871
612.133	11625.710
612.262	11648.753
612.390	11683.312
612.518	11704.473
612.646	11638.484
612.774	11706.043
612.902	11738.161
613.030	11702.441
613.158	11661.129
613.287	11775.430
613.415	11620.215
613.543	11719.957
613.671	11700.860
613.799	11727.925
613.927	11756.505
614.055	11773.667
614.183	11807.097
614.312	11748.849
614.440	11926.871
614.568	11852.301
614.696	11853.054
614.824	11850.355
614.952	11935.118
615.080	11913.237
615.208	11919.043
615.337	12016.925
615.465	11921.097
615.593	12002.774
615.721	11974.602
615.849	12079.366
615.977	12015.430
616.105	12037.140
616.233	12040.806
616.362	12149.398
616.490	12099.237
616.618	12138.677
616.746	12228.312
616.874	12195.054
617.002	12218.828
617.130	12171.613
617.258	12156.226
617.387	12198.882
617.515	12236.935
617.643	12232.634
617.771	12284.430
617.899	12212.129
618.027	12315.398
618.155	12295.645
618.283	12292.312
618.412	12288.602
618.540	12369.946
618.668	12290.581
618.796	12340.860
618.924	12242.527
619.052	12286.183
619.180	12264.065
619.308	12247.355
619.437	12286.258
619.565	12252.774
619.693	12223.946
619.821	12298.914
619.949	12214.710
620.077	12264.226
620.205	12297.559
620.333	12308.086
620.462	12215.570
620.590	12250.946
620.718	12267.129
620.846	12269.000
620.974	12276.462
621.102	12295.226
621.230	12287.118
621.358	12390.753
621.487	12222.194
621.615	12265.344
621.743	12169.613
621.871	12237.441
621.999	12194.366
622.127	12195.290
622.255	12141.720
622.383	12159.925
622.512	12145.108
622.640	12128.763
622.768	12175.989
622.896	12234.925
623.024	12185.688
623.152	12126.946
623.280	12233.849
623.408	12155.774
623.537	12182.656
623.665	12130.323
623.793	12178.581
623.921	12147.527
624.049	12095.624
624.177	12106.269
624.305	12127.839
624.433	12130.785
624.562	12081.452
624.690	12243.495
624.818	12047.634
624.946	12084.968
625.074	12039.452
625.202	12013.043
625.330	12049.290
625.458	12181.226
625.587	12009.140
625.715	12098.903
625.843	12012.344
625.971	12079.785
626.099	12051.301
626.227	12054.140
626.355	11959.237
626.483	12039.409
626.612	11995.495
626.740	12011.247
626.868	12019.570
626.996	12062.032
627.124	12013.118
627.252	11956.548
627.380	12013.903
627.508	11963.871
627.637	11982.011
627.765	12016.441
627.893	12043.591
628.021	12089.495
628.149	11946.108
628.277	12078.645
628.405	12025.269
628.533	12034.441
628.662	12034.581
628.790	12089.710
628.918	11985.290
629.046	12137.108
629.174	12021.516
629.302	12019.677
629.430	11993.946
629.558	12061.538
629.687	12010.892
629.815	12094.118
629.943	12174.290
630.071	12088.527
630.199	12043.419
630.327	12144.882
630.455	12117.935
630.583	12116.323
630.712	12119.140
630.840	12105.699
630.968	12102.516
631.096	12063.462
631.224	12120.839
631.352	12239.548
631.480	12121.398
631.608	12318.430
631.737	12117.882
631.865	12261.269
631.993	12244.946
632.121	12363.366
632.249	12221.957
632.377	12164.462
632.505	12198.151
632.633	12203.398
632.762	12182.785
632.890	12171.376
633.018	12198.172
633.146	12158.161
633.274	12150.570
633.402	12176.108
633.530	12105.903
633.658	12125.957
633.787	12146.914
633.915	12134.634
634.043	12143.430
634.171	12154.151
634.299	12111.903
634.427	12081.366
634.555	12269.097
634.683	12104.903
634.812	12092.656
634.940	12051.462
635.068	12038.333
635.196	12008.183
635.324	12035.022
635.452	12007.903
635.580	12088.194
635.708	11971.753
635.837	11956.022
635.965	11995.516
636.093	11932.903
636.221	11904.237
636.349	11830.570
636.477	11859.258
636.605	11930.505
636.733	11831.774
636.862	11768.269
636.990	11829.022
637.118	11809.462
637.246	11732.613
637.374	11885.204
637.502	11672.796
637.630	11687.935
637.758	11688.645
637.887	11572.968
638.015	11751.688
638.143	11676.151
638.271	11541.710
638.399	11585.602
638.527	11534.710
638.655	11520.548
638.783	11511.720
638.912	11555.355
639.040	11446.527
639.168	11452.355
639.296	11386.183
639.424	11473.441
639.552	11389.473
639.680	11416.505
639.808	11370.946
639.937	11301.839
640.065	11305.720
640.193	11245.538
640.321	11386.806
640.449	11316.462
640.577	11272.892
640.705	11273.269
640.833	11251.505
640.962	11295.194
641.090	11187.237
641.218	11163.280
641.346	11258.323
641.474	11213.505
641.602	11177.376
641.730	11151.151
641.858	11114.957
641.987	11109.516
642.115	11309.409
642.243	11146.194
642.371	11290.054
642.499	11113.258
642.627	11188.258
642.755	11072.462
642.883	11110.409
643.012	11090.151
643.140	11166.817
643.268	11133.978
643.396	11048.559
643.524	11083.441
643.652	11147.602
643.780	10998.183
643.908	11039.290
644.037	11157.710
644.165	11121.839
644.293	11195.710
644.421	11023.387
644.549	11074.581
644.677	11075.032
644.805	10995.097
644.933	11012.108
645.062	11055.151
645.190	11150.699
645.318	11024.892
645.446	10940.613
645.574	10929.032
645.702	10996.366
645.830	10980.226
645.958	10907.419
646.087	10897.441
646.215	10900.151
646.343	10877.677
646.471	11034.753
646.599	10899.581
646.727	10868.591
646.855	10832.118
646.983	10811.871
647.112	10896.290
647.240	10833.785
647.368	10872.075
647.496	10798.032
647.624	10795.548
647.752	10788.860
647.880	10742.817
648.008	10741.484
648.137	10785.022
648.265	10692.634
648.393	10766.462
648.521	10696.108
648.649	10832.075
648.777	10717.677
648.905	10644.849
649.033	10726.118
649.162	10564.613
649.290	10534.989
649.418	10520.258
649.546	10702.129
649.674	10487.505
649.802	10495.624
649.930	10477.312
650.058	10387.699
650.187	10455.505
650.315	10409.161
650.443	10370.075
650.571	10324.473
650.699	10325.806
650.827	10290.785
650.955	10258.978
651.083	10314.097
651.212	10239.183
651.340	10226.581
651.468	10194.548
651.596	10205.344
651.724	10195.462
651.852	10134.118
651.980	10136.495
652.108	10087.462
652.237	10128.699
652.365	10040.785
652.493	10012.430
652.621	9968.280
652.749	10014.581
652.877	9978.538
653.005	9970.968
653.133	9935.925
653.262	9920.839
653.390	9896.280
653.518	10040.043
653.646	9820.000
653.774	9799.398
653.902	9893.301
654.030	9839.656
654.158	9734.495
654.287	9793.516
654.415	9746.527
654.543	9765.183
654.671	9705.269
654.799	9655.355
654.927	9678.699
655.055	9623.226
655.183	9628.376
655.312	9613.462
655.440	9566.753
655.568	9572.366
655.696	9610.258
655.824	9530.527
655.952	9520.925
656.080	9442.495
656.208	9457.151
656.337	9496.462
656.465	9625.118
656.593	9421.538
656.721	9448.516
656.849	9508.441
656.977	9304.108
657.105	9352.129
657.233	9364.839
657.362	9412.118
657.490	9325.344
657.618	9278.441
657.746	9307.344
657.874	9196.301
658.002	9183.882
658.130	9113.247
658.258	9126.677
658.387	9083.527
658.515	9037.796
658.643	9050.559
658.771	9104.720
658.899	9001.269
659.027	8997.774
659.155	8990.065
659.283	8951.118
659.412	8941.882
659.540	8941.247
659.668	8937.032
659.796	8999.108
659.924	8926.000
660.052	9022.258
660.180	8918.828
660.308	8998.269
660.437	8954.430
660.565	8865.366
660.693	8820.634
660.821	8967.387
660.949	8759.957
661.077	8813.000
661.205	8937.677
661.333	8755.720
661.462	8734.817
661.590	8813.677
661.718	8731.602
661.846	8737.204
661.974	8667.011
662.102	8691.301
662.230	8669.419
662.358	8537.022
662.487	8643.355
662.615	8571.602
662.743	8615.484
662.871	8587.290
662.999	8521.140
663.127	8497.946
663.255	8481.462
663.383	8598.129
663.512	8394.742
663.640	8471.796
663.768	8476.129
663.896	8421.161
664.024	8439.968
664.152	8390.172
664.280	8451.269
664.408	8318.828
664.537	8316.989
664.665	8358.839
664.793	8330.387
664.921	8284.011
665.049	8346.022
665.177	8236.527
665.305	8264.462
665.433	8245.441
665.562	8357.280
665.690	8271.957
665.818	8354.871
665.946	8160.849
666.074	8160.925
666.202	8162.129
666.330	8101.215
666.458	8618.269
666.587	8087.677
666.715	8085.710
666.843	8030.204
666.971	8077.129
667.099	8051.118
667.227	8082.591
667.355	8095.097
667.483	8006.323
667.612	7998.753
667.740	8024.430
667.868	7958.387
667.996	7917.419
668.124	7954.613
668.252	8058.720
668.380	7906.828
668.508	7926.892
668.637	7896.925
668.765	7927.570
668.893	7887.763
669.021	7800.925
669.149	7839.796
669.277	7761.688
669.405	7875.720
669.533	7848.677
669.662	7756.968
669.790	7732.548
669.918	7772.806
670.046	7841.688
670.174	7660.323
670.302	7635.957
670.430	7624.753
670.558	7667.086
670.687	7795.151
670.815	7598.925
670.943	7588.215
671.071	7507.645
671.199	7495.806
671.327	7539.860
671.455	7561.333
671.583	7493.065
671.712	7456.000
671.840	7510.495
671.968	7603.086
672.096	7569.172
672.224	7367.871
672.352	7355.376
672.480	7329.151
672.608	7373.398
672.737	7293.914
672.865	7241.570
672.993	7228.398
673.121	7216.462
673.249	7233.957
673.377	7164.430
673.505	7169.548
673.633	7208.946
673.762	7137.527
673.890	7111.763
674.018	7142.839
674.146	7080.269
674.274	7057.000
674.402	7130.882
674.530	7015.269
674.658	6962.441
674.787	6967.237
674.915	7100.892
675.043	6968.215
675.171	6954.989
675.299	6903.774
675.427	6871.194
675.555	6846.742
675.683	6874.989
675.812	6844.720
675.940	6824.656
676.068	6763.570
676.196	6832.828
676.324	6743.183
676.452	6698.344
676.580	6681.925
676.708	6661.000
676.837	6671.194
676.965	6759.742
677.093	6780.032
677.221	6636.613
677.349	6562.215
677.477	6668.978
677.605	6549.817
677.733	6553.871
677.862	6514.806
677.990	6504.484
678.118	6553.473
678.246	6476.538
678.374	6531.344
678.502	6444.935
678.630	6373.978
678.758	6395.333
678.887	6523.505
679.015	6313.323
679.143	6302.355
679.271	6298.183
679.399	6289.710
679.527	6304.688
679.655	6326.785
679.783	6217.828
679.912	6209.849
680.040	6372.989
680.168	6172.882
680.296	6193.624
680.424	6143.194
680.552	6140.419
680.680	6103.301
680.808	6095.839
680.937	6047.258
681.065	6089.054
681.193	6004.118
681.321	5998.097
681.449	6064.806
681.577	5991.226
681.705	5974.398
681.833	5968.763
681.962	5942.387
682.090	5927.376
682.218	5903.312
682.346	5908.946
682.474	5886.570
682.602	5858.312
682.730	5914.505
682.858	5829.495
682.987	5845.656
683.115	5830.495
683.243	5831.183
683.371	5798.667
683.499	5746.097
683.627	5800.355
683.755	5737.688
683.883	5719.570
684.012	5762.409
684.140	5686.688
684.268	5704.989
684.396	5749.086
684.524	5664.011
684.652	5687.785
684.780	5676.591
684.908	5661.129
685.037	5672.667
685.165	5638.699
685.293	5692.344
685.421	5624.161
685.549	5621.860
685.677	5561.043
685.805	5625.054
685.933	5572.290
686.062	5576.935
686.190	5545.688
686.318	5524.366
686.446	5508.806
686.574	5450.817
686.702	5537.473
686.830	5437.387
686.958	5510.387
687.087	5411.742
687.215	5447.473
687.343	5433.548
687.471	5565.011
687.599	5342.323
687.727	5342.226
687.855	5315.849
687.983	5288.312
688.112	5338.194
688.240	5277.978
688.368	5303.903
688.496	5272.677
688.624	5247.527
688.752	5378.602
688.880	5260.172
689.008	5211.591
689.137	5219.935
689.265	5178.882
689.393	5187.022
689.521	5172.344
689.649	5242.054
689.777	5164.989
689.905	5199.645
690.033	5108.602
690.162	5101.495
690.290	5113.247
690.418	5064.785
690.546	5112.624
690.674	5112.140
690.802	5112.204
690.930	5061.914
691.058	5043.785
691.187	4984.323
691.315	4967.882
691.443	4961.323
691.571	4996.323
691.699	4930.957
691.827	4935.925
691.955	4913.946
692.083	4877.011
692.212	4883.022
692.340	4898.667
692.468	4915.903
692.596	4886.247
692.724	4809.344
692.852	4856.817
692.980	4857.258
693.108	4873.527
693.237	4801.376
693.365	4778.882
693.493	4745.634
693.621	4763.688
693.749	4693.742
693.877	4777.925
694.005	4692.817
694.133	4649.871
694.262	4720.656
694.390	4606.570
694.518	4646.763
694.646	4628.043
694.774	4552.796
694.902	4570.667
695.030	4566.742
695.158	4564.043
695.287	4548.677
695.415	4524.344
695.543	4530.183
695.671	4447.720
695.799	4569.548
695.927	4475.763
696.055	4481.817
696.183	4423.011
696.312	4607.355
696.440	4425.849
696.568	4435.183
696.696	4309.462
696.824	4313.624
696.952	4328.656
697.080	4333.409
697.208	4282.688
697.337	4284.839
697.465	4256.237
697.593	4240.097
697.721	4330.022
697.849	4204.914
697.977	4240.989
698.105	4276.688
698.233	4199.849
698.362	4133.419
698.490	4268.323
698.618	4102.355
698.746	4091.914
698.874	4164.989
699.002	4124.484
699.130	4108.806
699.258	4078.538
699.387	3998.903
699.515	4058.753
699.643	4051.247
699.771	4125.516
699.899	3973.892
700.027	3945.226
700.155	4009.215
700.283	3882.925
700.412	3914.043
700.540	3947.032
700.668	3988.710
700.796	3878.774
700.924	3916.882
701.052	3910.323
701.180	3883.742
701.308	3811.731
701.437	3778.720
701.565	3786.140
701.693	3824.624
701.821	3985.409
701.949	3746.667
702.077	3756.258
702.205	3812.054
702.333	3730.989
702.462	3714.323
702.590	3765.419
702.718	3662.978
702.846	3839.871
702.974	3622.301
703.102	3628.581
703.230	3633.796
703.358	3583.613
703.487	3571.957
703.615	3588.882
703.743	3544.344
703.871	3532.387
703.999	3536.763
704.127	3538.194
704.255	3494.645
704.383	3521.505
704.512	3556.710
704.640	3529.968
704.768	3585.882
704.896	3444.656
705.024	3401.237
705.152	3402.452
705.280	3470.914
705.408	3375.140
705.537	3359.118
705.665	3368.409
705.793	3349.387
705.921	3330.075
706.049	3296.903
706.177	3347.570
706.305	3274.677
706.433	3307.484
706.562	3298.688
706.690	3275.968
706.818	3297.258
706.946	3200.871
707.074	3202.763
707.202	3171.774
707.330	3175.785
707.458	3153.796
707.587	3114.333
707.715	3135.860
707.843	3170.269
707.971	3160.258
708.099	3067.065
708.227	3070.839
708.355	3056.710
708.483	3058.290
708.612	3057.505
708.740	3000.548
708.868	3001.667
708.996	3080.043
709.124	3040.473
709.252	3025.968
709.380	3024.710
709.508	2956.280
709.637	2993.430
709.765	2960.753
709.893	2991.634
710.021	2917.247
710.149	3014.882
710.277	2890.280
710.405	2923.828
710.533	2890.022
710.662	2867.570
710.790	3004.828
710.918	2860.301
711.046	2873.763
711.174	2831.323
711.302	2858.484
711.430	2831.054
711.558	2877.247
711.687	2831.968
711.815	2810.215
711.943	2787.699
712.071	2799.720
712.199	2814.634
712.327	2855.484
712.455	2772.796
712.583	2907.935
712.712	2768.935
712.840	2807.011
712.968	2736.978
713.096	2746.118
713.224	2732.763
713.352	2735.624
713.480	2701.043
713.608	2705.387
713.737	2679.495
713.865	2702.505
713.993	2679.570
714.121	2693.215
714.249	2686.946
714.377	2679.183
714.505	2668.065
714.633	2657.430
714.762	2642.785
714.890	2639.323
715.018	2629.247
715.146	2653.925
715.274	2603.796
715.402	2580.817
715.530	2608.129
715.658	2600.355
715.787	2575.323
715.915	2605.097
716.043	2573.280
716.171	2575.677
716.299	2535.398
716.427	2553.613
716.555	2539.570
716.683	2533.323
716.812	2514.914
716.940	2519.978
717.068	2516.108
717.196	2545.570
717.324	2494.409
717.452	2470.280
717.580	2507.871
717.708	2448.215
717.837	2447.108
717.965	2462.366
718.093	2447.731
718.221	2448.344
718.349	2444.656
718.477	2421.086
718.605	2415.581
718.733	2397.441
718.862	2407.742
718.990	2396.591
719.118	2417.409
719.246	2359.989
719.374	2346.237
719.502	2366.860
719.630	2385.473
719.758	2346.720
719.887	2327.000
720.015	2323.516
720.143	2334.968
720.271	2296.892
720.399	2310.118
720.527	2278.065
720.655	2297.817
720.783	2269.935
720.912	2262.634
721.040	2263.290
721.168	2277.000
721.296	2231.237
721.424	2243.548
721.552	2233.968
721.680	2225.742
721.808	2227.032
721.937	2202.430
722.065	2203.559
722.193	2190.366
722.321	2197.495
722.449	2165.290
722.577	2156.290
722.705	2154.516
722.833	2144.161
722.962	2139.258
