Ref_Start_90_Pol_at_750.00nm_cut_at_1184.50Y_01.dat
03.07.2023
10:44:36
cut middle at Y: 1184.50
top cursor: 1231 down cursor: 1138 mean of: 93 lines , 2560 datapoints
wavelength(nm)	intensity[arb. units]
585.996	10837.602
586.124	10618.774
586.252	10568.312
586.380	10599.000
586.508	10656.806
586.637	10751.398
586.765	10654.129
586.893	10705.409
587.021	10761.656
587.149	10766.699
587.277	10791.559
587.405	10782.247
587.533	10838.419
587.662	10866.204
587.790	10781.968
587.918	10790.376
588.046	10783.204
588.174	10792.075
588.302	10792.785
588.430	10801.484
588.558	10795.785
588.687	10836.301
588.815	10831.032
588.943	10793.484
589.071	10859.495
589.199	10847.204
589.327	10831.376
589.455	10900.108
589.583	10829.817
589.712	10844.355
589.840	10795.409
589.968	10816.559
590.096	10849.419
590.224	10778.495
590.352	10890.806
590.480	10766.516
590.608	10784.000
590.737	10833.688
590.865	10896.462
590.993	10762.849
591.121	10845.032
591.249	10798.280
591.377	10811.204
591.505	10903.957
591.633	10790.925
591.762	10825.871
591.890	10810.258
592.018	10883.591
592.146	10830.720
592.274	10864.806
592.402	10805.699
592.530	11011.000
592.658	10911.172
592.787	10878.957
592.915	10935.355
593.043	10827.935
593.171	10898.860
593.299	10887.538
593.427	10864.108
593.555	10894.871
593.683	10916.022
593.812	10898.871
593.940	10918.667
594.068	10929.398
594.196	10942.914
594.324	10934.419
594.452	11152.860
594.580	10990.118
594.708	11061.785
594.837	11030.505
594.965	11130.097
595.093	11052.796
595.221	11123.398
595.349	11119.215
595.477	11116.269
595.605	11121.731
595.733	11142.237
595.862	11146.677
595.990	11213.828
596.118	11245.247
596.246	11298.634
596.374	11220.742
596.502	11274.774
596.630	11266.484
596.758	11255.957
596.887	11264.419
597.015	11263.022
597.143	11275.581
597.271	11274.462
597.399	11320.710
597.527	11293.301
597.655	11308.957
597.783	11318.097
597.912	11327.301
598.040	11375.172
598.168	11291.419
598.296	11294.129
598.424	11475.957
598.552	11329.086
598.680	11296.871
598.808	11356.323
598.937	11299.140
599.065	11324.903
599.193	11349.097
599.321	11343.323
599.449	11297.570
599.577	11291.237
599.705	11321.688
599.833	11270.688
599.962	11268.699
600.090	11253.817
600.218	11242.613
600.346	11234.516
600.474	11202.634
600.602	11183.548
600.730	11201.290
600.858	11233.828
600.987	11285.785
601.115	11234.226
601.243	11328.806
601.371	11282.688
601.499	11263.022
601.627	11294.688
601.755	11269.097
601.883	11297.269
602.012	11160.226
602.140	11252.634
602.268	11261.161
602.396	11384.075
602.524	11306.677
602.652	11333.387
602.780	11310.806
602.908	11349.860
603.037	11425.441
603.165	11441.398
603.293	11413.215
603.421	11468.602
603.549	11462.516
603.677	11460.527
603.805	11481.011
603.933	11502.581
604.062	11538.871
604.190	11616.398
604.318	11629.129
604.446	11606.581
604.574	11665.667
604.702	11715.602
604.830	11649.323
604.958	11681.860
605.087	11745.376
605.215	11753.043
605.343	11890.903
605.471	11875.226
605.599	11870.183
605.727	11976.237
605.855	11923.828
605.983	11961.892
606.112	12007.376
606.240	12026.570
606.368	12005.946
606.496	11987.473
606.624	12105.022
606.752	12027.796
606.880	12112.849
607.008	12070.301
607.137	12080.258
607.265	12203.323
607.393	12151.688
607.521	12231.290
607.649	12147.591
607.777	12171.075
607.905	12179.043
608.033	12157.548
608.162	12149.882
608.290	12166.301
608.418	12245.925
608.546	12180.075
608.674	12214.194
608.802	12139.280
608.930	12167.247
609.058	12153.387
609.187	12138.559
609.315	12132.301
609.443	12090.559
609.571	12233.140
609.699	12085.774
609.827	12193.849
609.955	12059.613
610.083	11999.946
610.212	12040.344
610.340	12034.914
610.468	12020.075
610.596	12051.978
610.724	11979.613
610.852	12043.194
610.980	12001.290
611.108	11968.860
611.237	11983.634
611.365	11966.204
611.493	11936.935
611.621	11941.720
611.749	11964.957
611.877	11994.925
612.005	11977.527
612.133	12017.860
612.262	11977.656
612.390	12023.258
612.518	12063.129
612.646	11997.548
612.774	12060.452
612.902	12066.108
613.030	12075.172
613.158	12020.581
613.287	12114.699
613.415	12017.645
613.543	12053.301
613.671	12011.667
613.799	12050.989
613.927	12087.860
614.055	12110.398
614.183	12119.785
614.312	12061.796
614.440	12229.151
614.568	12173.280
614.696	12178.355
614.824	12152.699
614.952	12203.849
615.080	12222.462
615.208	12292.290
615.337	12342.968
615.465	12252.903
615.593	12331.677
615.721	12311.624
615.849	12394.226
615.977	12337.753
616.105	12380.226
616.233	12377.022
616.362	12428.183
616.490	12392.871
616.618	12442.398
616.746	12556.344
616.874	12516.978
617.002	12494.978
617.130	12533.387
617.258	12499.570
617.387	12483.656
617.515	12539.925
617.643	12519.882
617.771	12625.505
617.899	12553.613
618.027	12601.333
618.155	12597.527
618.283	12634.108
618.412	12610.699
618.540	12696.462
618.668	12589.548
618.796	12637.075
618.924	12577.720
619.052	12609.366
619.180	12559.118
619.308	12572.398
619.437	12593.753
619.565	12600.011
619.693	12573.301
619.821	12621.548
619.949	12562.473
620.077	12612.946
620.205	12617.946
620.333	12614.151
620.462	12561.645
620.590	12602.538
620.718	12602.968
620.846	12613.914
620.974	12584.043
621.102	12645.624
621.230	12617.559
621.358	12730.882
621.487	12559.667
621.615	12628.634
621.743	12514.527
621.871	12570.075
621.999	12520.849
622.127	12560.860
622.255	12493.398
622.383	12498.000
622.512	12502.538
622.640	12478.591
622.768	12577.258
622.896	12590.742
623.024	12542.602
623.152	12481.989
623.280	12586.699
623.408	12514.011
623.537	12541.559
623.665	12480.301
623.793	12568.161
623.921	12519.978
624.049	12505.366
624.177	12477.108
624.305	12465.333
624.433	12487.151
624.562	12503.398
624.690	12603.935
624.818	12423.925
624.946	12468.065
625.074	12423.097
625.202	12415.624
625.330	12443.065
625.458	12538.548
625.587	12406.226
625.715	12475.247
625.843	12440.957
625.971	12455.043
626.099	12444.366
626.227	12429.022
626.355	12362.376
626.483	12444.129
626.612	12388.226
626.740	12413.409
626.868	12412.516
626.996	12466.817
627.124	12407.495
627.252	12398.817
627.380	12407.430
627.508	12358.495
627.637	12447.828
627.765	12437.570
627.893	12449.140
628.021	12485.333
628.149	12414.484
628.277	12499.699
628.405	12461.129
628.533	12438.430
628.662	12439.290
628.790	12521.731
628.918	12464.097
629.046	12575.226
629.174	12451.011
629.302	12476.731
629.430	12401.957
629.558	12493.570
629.687	12400.280
629.815	12446.753
629.943	12568.581
630.071	12505.452
630.199	12495.054
630.327	12495.237
630.455	12536.753
630.583	12532.903
630.712	12535.366
630.840	12541.065
630.968	12530.366
631.096	12520.280
631.224	12522.978
631.352	12652.194
631.480	12575.505
631.608	12718.624
631.737	12540.710
631.865	12672.710
631.993	12615.753
632.121	12750.570
632.249	12597.215
632.377	12591.720
632.505	12604.398
632.633	12627.978
632.762	12564.624
632.890	12589.527
633.018	12640.118
633.146	12600.667
633.274	12585.323
633.402	12572.398
633.530	12557.312
633.658	12600.495
633.787	12557.409
633.915	12560.366
634.043	12575.796
634.171	12539.000
634.299	12566.581
634.427	12514.118
634.555	12753.333
634.683	12505.688
634.812	12495.172
634.940	12478.548
635.068	12502.688
635.196	12480.054
635.324	12469.763
635.452	12470.247
635.580	12555.957
635.708	12443.129
635.837	12461.591
635.965	12426.581
636.093	12361.634
636.221	12346.430
636.349	12289.957
636.477	12290.968
636.605	12345.656
636.733	12265.828
636.862	12227.409
636.990	12262.774
637.118	12228.774
637.246	12174.645
637.374	12342.215
637.502	12121.559
637.630	12104.527
637.758	12067.710
637.887	12035.978
638.015	12180.538
638.143	12092.290
638.271	12012.151
638.399	11980.086
638.527	11908.290
638.655	11940.290
638.783	11939.892
638.912	11973.032
639.040	11870.022
639.168	11832.957
639.296	11785.258
639.424	11865.441
639.552	11781.763
639.680	11876.237
639.808	11748.011
639.937	11722.075
640.065	11688.699
640.193	11668.312
640.321	11755.075
640.449	11777.333
640.577	11667.129
640.705	11682.989
640.833	11656.215
640.962	11738.247
641.090	11581.086
641.218	11584.570
641.346	11688.194
641.474	11609.860
641.602	11609.140
641.730	11547.000
641.858	11548.473
641.987	11531.925
642.115	11713.269
642.243	11591.677
642.371	11743.570
642.499	11554.774
642.627	11642.301
642.755	11528.215
642.883	11555.656
643.012	11547.796
643.140	11594.323
643.268	11584.699
643.396	11491.301
643.524	11537.376
643.652	11600.667
643.780	11504.581
643.908	11482.462
644.037	11582.774
644.165	11588.742
644.293	11680.774
644.421	11452.462
644.549	11486.108
644.677	11525.097
644.805	11502.871
644.933	11464.742
645.062	11496.097
645.190	11608.505
645.318	11492.151
645.446	11410.516
645.574	11394.538
645.702	11461.097
645.830	11460.677
645.958	11418.613
646.087	11382.989
646.215	11384.613
646.343	11366.237
646.471	11498.495
646.599	11342.419
646.727	11327.763
646.855	11366.667
646.983	11328.065
647.112	11402.462
647.240	11319.817
647.368	11360.978
647.496	11325.441
647.624	11271.860
647.752	11258.247
647.880	11234.581
648.008	11245.935
648.137	11268.753
648.265	11217.559
648.393	11293.892
648.521	11199.645
648.649	11311.312
648.777	11260.409
648.905	11170.882
649.033	11214.011
649.162	11052.871
649.290	11006.054
649.418	11021.957
649.546	11188.172
649.674	10991.355
649.802	10986.763
649.930	10949.882
650.058	10916.882
650.187	10973.753
650.315	10911.731
650.443	10906.946
650.571	10863.473
650.699	10813.677
650.827	10799.624
650.955	10774.118
651.083	10837.742
651.212	10766.108
651.340	10739.634
651.468	10672.097
651.596	10681.710
651.724	10677.333
651.852	10636.204
651.980	10642.935
652.108	10599.817
652.237	10592.667
652.365	10559.000
652.493	10522.344
652.621	10482.925
652.749	10513.957
652.877	10480.366
653.005	10489.538
653.133	10436.538
653.262	10405.828
653.390	10397.032
653.518	10469.731
653.646	10321.290
653.774	10304.280
653.902	10366.237
654.030	10338.892
654.158	10235.075
654.287	10244.645
654.415	10240.215
654.543	10227.763
654.671	10168.527
654.799	10154.677
654.927	10123.699
655.055	10096.591
655.183	10078.935
655.312	10076.409
655.440	10023.763
655.568	10028.688
655.696	10073.290
655.824	10010.172
655.952	10014.882
656.080	9911.796
656.208	9948.430
656.337	9941.398
656.465	10079.731
656.593	9896.473
656.721	9942.645
656.849	9946.151
656.977	9766.097
657.105	9834.774
657.233	9819.731
657.362	9847.376
657.490	9795.806
657.618	9791.753
657.746	9742.892
657.874	9664.086
658.002	9627.441
658.130	9600.097
658.258	9600.344
658.387	9513.968
658.515	9526.731
658.643	9492.000
658.771	9542.172
658.899	9447.075
659.027	9480.000
659.155	9461.140
659.283	9398.817
659.412	9416.527
659.540	9399.355
659.668	9422.720
659.796	9430.882
659.924	9368.602
660.052	9435.215
660.180	9307.333
660.308	9401.871
660.437	9377.624
660.565	9340.581
660.693	9222.054
660.821	9409.172
660.949	9204.699
661.077	9242.161
661.205	9374.032
661.333	9225.925
661.462	9166.161
661.590	9284.269
661.718	9161.559
661.846	9159.742
661.974	9094.935
662.102	9104.516
662.230	9130.269
662.358	8973.032
662.487	9030.849
662.615	9003.247
662.743	9037.957
662.871	8992.710
662.999	8931.430
663.127	8943.419
663.255	8921.602
663.383	9006.011
663.512	8840.903
663.640	8886.720
663.768	8879.839
663.896	8827.742
664.024	8793.882
664.152	8791.290
664.280	8877.258
664.408	8755.301
664.537	8721.559
664.665	8764.441
664.793	8756.505
664.921	8693.774
665.049	8765.806
665.177	8641.462
665.305	8659.624
665.433	8645.151
665.562	8827.215
665.690	8639.290
665.818	8784.484
665.946	8572.978
666.074	8547.688
666.202	8560.161
666.330	8537.935
666.458	9048.892
666.587	8466.548
666.715	8507.785
666.843	8471.677
666.971	8493.065
667.099	8473.570
667.227	8525.054
667.355	8515.677
667.483	8408.817
667.612	8450.344
667.740	8435.828
667.868	8380.957
667.996	8364.645
668.124	8447.269
668.252	8483.495
668.380	8316.882
668.508	8348.086
668.637	8294.903
668.765	8322.688
668.893	8313.269
669.021	8234.753
669.149	8308.785
669.277	8190.989
669.405	8312.183
669.533	8303.323
669.662	8191.065
669.790	8195.677
669.918	8204.183
670.046	8325.387
670.174	8089.613
670.302	8095.430
670.430	8077.849
670.558	8113.011
670.687	8203.645
670.815	8045.355
670.943	8063.860
671.071	7987.516
671.199	7992.548
671.327	7975.505
671.455	8011.194
671.583	7961.054
671.712	7906.946
671.840	7955.129
671.968	8052.108
672.096	8013.419
672.224	7824.860
672.352	7803.215
672.480	7765.828
672.608	7838.032
672.737	7762.000
672.865	7691.301
672.993	7717.860
673.121	7659.839
673.249	7677.946
673.377	7614.075
673.505	7595.172
673.633	7640.011
673.762	7565.118
673.890	7561.430
674.018	7563.667
674.146	7510.903
674.274	7517.624
674.402	7542.280
674.530	7473.860
674.658	7412.075
674.787	7424.441
674.915	7546.312
675.043	7387.645
675.171	7386.710
675.299	7306.527
675.427	7302.559
675.555	7271.860
675.683	7309.247
675.812	7263.000
675.940	7239.968
676.068	7162.065
676.196	7209.204
676.324	7140.011
676.452	7094.108
676.580	7083.946
676.708	7076.796
676.837	7068.559
676.965	7127.892
677.093	7179.172
677.221	7043.957
677.349	6953.602
677.477	7027.484
677.605	6899.344
677.733	6922.892
677.862	6903.720
677.990	6869.409
678.118	6928.430
678.246	6859.548
678.374	6897.452
678.502	6797.570
678.630	6712.118
678.758	6785.624
678.887	6902.043
679.015	6686.828
679.143	6658.699
679.271	6638.505
679.399	6662.022
679.527	6651.645
679.655	6695.484
679.783	6565.828
679.912	6556.301
680.040	6740.731
680.168	6515.129
680.296	6542.204
680.424	6489.849
680.552	6444.699
680.680	6452.065
680.808	6432.634
680.937	6370.978
681.065	6452.462
681.193	6380.785
681.321	6333.452
681.449	6381.204
681.577	6319.753
681.705	6273.011
681.833	6315.473
681.962	6283.591
682.090	6229.215
682.218	6274.548
682.346	6250.022
682.474	6211.968
682.602	6165.548
682.730	6220.409
682.858	6145.172
682.987	6144.871
683.115	6199.559
683.243	6134.763
683.371	6140.742
683.499	6073.000
683.627	6127.398
683.755	6056.839
683.883	6036.290
684.012	6078.602
684.140	6005.140
684.268	6002.441
684.396	6062.194
684.524	5988.323
684.652	6000.323
684.780	5990.957
684.908	5976.806
685.037	5982.204
685.165	5959.237
685.293	6000.086
685.421	5942.828
685.549	5925.054
685.677	5869.677
685.805	5929.720
685.933	5877.785
686.062	5892.892
686.190	5846.753
686.318	5856.452
686.446	5791.806
686.574	5768.806
686.702	5870.667
686.830	5731.602
686.958	5830.538
687.087	5721.161
687.215	5732.484
687.343	5745.849
687.471	5875.462
687.599	5649.344
687.727	5642.656
687.855	5645.849
687.983	5576.570
688.112	5654.785
688.240	5598.430
688.368	5614.828
688.496	5588.172
688.624	5565.097
688.752	5685.645
688.880	5528.151
689.008	5551.344
689.137	5545.785
689.265	5486.505
689.393	5472.989
689.521	5497.548
689.649	5553.634
689.777	5478.151
689.905	5529.699
690.033	5412.871
690.162	5385.989
690.290	5399.634
690.418	5357.409
690.546	5407.462
690.674	5410.323
690.802	5411.667
690.930	5348.860
691.058	5330.538
691.187	5288.925
691.315	5281.118
691.443	5245.957
691.571	5276.753
691.699	5212.065
691.827	5192.527
691.955	5216.140
692.083	5163.333
692.212	5178.785
692.340	5174.763
692.468	5173.075
692.596	5170.301
692.724	5115.333
692.852	5135.269
692.980	5131.065
693.108	5140.172
693.237	5030.527
693.365	5019.946
693.493	5023.247
693.621	5033.538
693.749	4994.688
693.877	5054.215
694.005	4933.161
694.133	4947.817
694.262	4993.430
694.390	4885.086
694.518	4917.301
694.646	4907.247
694.774	4850.462
694.902	4853.527
695.030	4838.290
695.158	4812.419
695.287	4835.387
695.415	4822.366
695.543	4786.075
695.671	4713.968
695.799	4844.699
695.927	4747.484
696.055	4743.183
696.183	4666.699
696.312	4825.473
696.440	4694.903
696.568	4698.559
696.696	4603.946
696.824	4578.108
696.952	4592.301
697.080	4580.000
697.208	4530.355
697.337	4528.591
697.465	4516.172
697.593	4470.237
697.721	4588.247
697.849	4464.538
697.977	4510.677
698.105	4530.624
698.233	4476.914
698.362	4367.387
698.490	4514.871
698.618	4356.516
698.746	4330.849
698.874	4397.634
699.002	4354.462
699.130	4361.645
699.258	4313.376
699.387	4254.140
699.515	4299.247
699.643	4304.462
699.771	4342.731
699.899	4222.753
700.027	4180.925
700.155	4246.441
700.283	4143.656
700.412	4154.323
700.540	4167.376
700.668	4230.720
700.796	4087.570
700.924	4131.075
701.052	4119.505
701.180	4098.065
701.308	4018.656
701.437	4021.806
701.565	4014.581
701.693	4045.473
701.821	4197.570
701.949	3985.548
702.077	3973.602
702.205	4040.161
702.333	3942.419
702.462	3915.656
702.590	3993.968
702.718	3890.387
702.846	4069.086
702.974	3851.054
703.102	3837.839
703.230	3809.925
703.358	3824.473
703.487	3814.656
703.615	3790.398
703.743	3774.333
703.871	3763.570
703.999	3743.505
704.127	3740.398
704.255	3703.602
704.383	3730.710
704.512	3768.108
704.640	3743.247
704.768	3778.022
704.896	3667.613
705.024	3618.968
705.152	3653.914
705.280	3676.473
705.408	3583.065
705.537	3559.011
705.665	3588.624
705.793	3542.785
705.921	3540.570
706.049	3503.796
706.177	3532.763
706.305	3473.892
706.433	3499.785
706.562	3494.183
706.690	3485.269
706.818	3471.989
706.946	3421.699
707.074	3396.731
707.202	3364.860
707.330	3384.903
707.458	3348.258
707.587	3316.559
707.715	3360.860
707.843	3368.742
707.971	3358.075
708.099	3272.226
708.227	3281.957
708.355	3253.839
708.483	3230.699
708.612	3261.312
708.740	3187.849
708.868	3213.656
708.996	3275.387
709.124	3275.409
709.252	3186.075
709.380	3215.935
709.508	3155.011
709.637	3184.032
709.765	3168.495
709.893	3187.978
710.021	3091.591
710.149	3219.333
710.277	3087.387
710.405	3089.000
710.533	3091.849
710.662	3070.086
710.790	3185.903
710.918	3025.656
711.046	3070.925
711.174	3008.054
711.302	3049.968
711.430	3015.871
711.558	3061.323
711.687	3014.430
711.815	2982.656
711.943	2976.032
712.071	2956.269
712.199	2988.000
712.327	3043.978
712.455	2916.312
712.583	3083.645
712.712	2929.645
712.840	2961.441
712.968	2889.828
713.096	2896.538
713.224	2895.097
713.352	2879.505
713.480	2847.581
713.608	2829.602
713.737	2811.946
713.865	2877.774
713.993	2829.731
714.121	2826.710
714.249	2787.570
714.377	2791.602
714.505	2785.581
714.633	2779.828
714.762	2772.269
714.890	2758.075
715.018	2777.333
715.146	2785.462
715.274	2757.882
715.402	2734.194
715.530	2732.269
715.658	2743.882
715.787	2721.204
715.915	2774.645
716.043	2708.172
716.171	2755.484
716.299	2683.323
716.427	2717.108
716.555	2659.226
716.683	2673.366
716.812	2660.763
716.940	2654.774
717.068	2650.065
717.196	2713.527
717.324	2651.806
717.452	2623.387
717.580	2654.742
717.708	2608.785
717.837	2602.204
717.965	2604.161
718.093	2605.677
718.221	2596.613
718.349	2588.570
718.477	2566.441
718.605	2595.097
718.733	2553.892
718.862	2563.290
718.990	2540.215
719.118	2557.527
719.246	2510.989
719.374	2513.032
719.502	2512.527
719.630	2533.161
719.758	2478.624
719.887	2461.591
720.015	2480.452
720.143	2492.828
720.271	2433.602
720.399	2464.731
720.527	2415.043
720.655	2453.086
720.783	2410.419
720.912	2398.323
721.040	2385.366
721.168	2394.516
721.296	2371.452
721.424	2373.548
721.552	2353.323
721.680	2361.688
721.808	2370.086
721.937	2348.677
722.065	2348.172
722.193	2313.796
722.321	2318.108
722.449	2296.505
722.577	2281.785
722.705	2278.763
