70_100_0_Pol_at_750.00nm_cut_at_1184.50Y_01.dat
03.07.2023
10:36:00
cut middle at Y: 1184.50
top cursor: 1231 down cursor: 1138 mean of: 93 lines , 2560 datapoints
wavelength(nm)	intensity[arb. units]
585.996	10652.183
586.124	10433.054
586.252	10388.269
586.380	10428.452
586.508	10456.097
586.637	10537.591
586.765	10490.645
586.893	10499.903
587.021	10590.075
587.149	10601.978
587.277	10612.237
587.405	10606.280
587.533	10664.806
587.662	10701.215
587.790	10669.161
587.918	10670.720
588.046	10662.355
588.174	10698.312
588.302	10696.183
588.430	10672.194
588.558	10713.849
588.687	10722.871
588.815	10746.892
588.943	10764.323
589.071	10722.204
589.199	10744.441
589.327	10751.387
589.455	10796.151
589.583	10751.581
589.712	10753.828
589.840	10716.516
589.968	10737.312
590.096	10781.398
590.224	10790.484
590.352	10805.602
590.480	10768.194
590.608	10759.172
590.737	10768.108
590.865	10864.118
590.993	10738.656
591.121	10783.161
591.249	10799.022
591.377	10783.215
591.505	10890.194
591.633	10798.269
591.762	10793.849
591.890	10820.903
592.018	10954.301
592.146	10840.828
592.274	10827.688
592.402	10852.860
592.530	11066.118
592.658	10975.581
592.787	10919.398
592.915	10987.505
593.043	10892.720
593.171	10970.215
593.299	10923.989
593.427	10949.333
593.555	10999.043
593.683	10993.946
593.812	11003.613
593.940	11050.860
594.068	11044.591
594.196	11043.183
594.324	11082.140
594.452	11286.839
594.580	11183.591
594.708	11212.882
594.837	11219.634
594.965	11294.785
595.093	11265.000
595.221	11337.731
595.349	11327.774
595.477	11342.376
595.605	11382.591
595.733	11372.903
595.862	11419.183
595.990	11444.774
596.118	11517.753
596.246	11554.527
596.374	11507.065
596.502	11537.839
596.630	11538.968
596.758	11543.677
596.887	11551.269
597.015	11582.269
597.143	11578.312
597.271	11629.215
597.399	11660.022
597.527	11604.559
597.655	11631.903
597.783	11668.742
597.912	11645.151
598.040	11696.828
598.168	11686.430
598.296	11658.935
598.424	11794.032
598.552	11627.548
598.680	11702.204
598.808	11755.591
598.937	11677.548
599.065	11711.871
599.193	11764.226
599.321	11741.258
599.449	11724.774
599.577	11738.892
599.705	11718.301
599.833	11685.065
599.962	11689.376
600.090	11736.075
600.218	11712.538
600.346	11733.301
600.474	11692.774
600.602	11667.129
600.730	11665.763
600.858	11712.269
600.987	11765.839
601.115	11743.237
601.243	11784.742
601.371	11855.118
601.499	11791.075
601.627	11846.204
601.755	11829.108
601.883	11855.495
602.012	11766.688
602.140	11875.968
602.268	11872.677
602.396	11998.097
602.524	11906.194
602.652	12022.817
602.780	11983.484
602.908	12025.215
603.037	12081.581
603.165	12113.312
603.293	12125.301
603.421	12135.742
603.549	12194.688
603.677	12225.774
603.805	12239.774
603.933	12286.247
604.062	12380.538
604.190	12432.054
604.318	12459.860
604.446	12440.849
604.574	12552.935
604.702	12561.677
604.830	12592.624
604.958	12567.548
605.087	12642.892
605.215	12718.000
605.343	12819.957
605.471	12789.172
605.599	12801.742
605.727	12959.581
605.855	12938.495
605.983	12961.129
606.112	13029.441
606.240	13022.108
606.368	12982.656
606.496	13033.204
606.624	13145.376
606.752	13099.054
606.880	13156.699
607.008	13124.581
607.137	13169.925
607.265	13295.731
607.393	13256.323
607.521	13323.473
607.649	13279.194
607.777	13293.312
607.905	13300.968
608.033	13286.892
608.162	13324.430
608.290	13293.065
608.418	13405.796
608.546	13374.419
608.674	13435.269
608.802	13357.871
608.930	13350.785
609.058	13399.075
609.187	13368.882
609.315	13343.183
609.443	13381.699
609.571	13460.978
609.699	13335.957
609.827	13443.710
609.955	13410.968
610.083	13363.516
610.212	13405.452
610.340	13348.849
610.468	13400.613
610.596	13345.849
610.724	13357.677
610.852	13446.194
610.980	13444.301
611.108	13363.699
611.237	13399.527
611.365	13425.387
611.493	13406.957
611.621	13438.946
611.749	13456.484
611.877	13494.591
612.005	13461.871
612.133	13515.989
612.262	13538.000
612.390	13600.892
612.518	13617.968
612.646	13571.065
612.774	13689.731
612.902	13662.656
613.030	13692.968
613.158	13656.226
613.287	13766.892
613.415	13680.914
613.543	13737.796
613.671	13739.215
613.799	13810.720
613.927	13815.538
614.055	13911.129
614.183	13913.290
614.312	13909.946
614.440	14031.194
614.568	14008.828
614.696	14045.183
614.824	14034.925
614.952	14088.204
615.080	14114.011
615.208	14153.258
615.337	14302.559
615.465	14200.763
615.593	14305.376
615.721	14293.559
615.849	14400.387
615.977	14358.817
616.105	14442.172
616.233	14483.796
616.362	14513.409
616.490	14505.817
616.618	14578.312
616.746	14676.269
616.874	14630.355
617.002	14647.086
617.130	14720.258
617.258	14680.022
617.387	14709.366
617.515	14776.355
617.643	14758.269
617.771	14867.086
617.899	14779.161
618.027	14893.032
618.155	14895.269
618.283	14916.828
618.412	14930.376
618.540	15027.806
618.668	15005.032
618.796	15014.914
618.924	15002.656
619.052	15018.000
619.180	14993.172
619.308	15041.108
619.437	15002.742
619.565	15059.376
619.693	15068.473
619.821	15115.903
619.949	15063.172
620.077	15125.333
620.205	15146.538
620.333	15179.699
620.462	15163.699
620.590	15182.516
620.718	15212.011
620.846	15257.591
620.974	15196.645
621.102	15231.473
621.230	15255.366
621.358	15394.817
621.487	15227.968
621.615	15300.366
621.743	15197.946
621.871	15318.968
621.999	15218.699
622.127	15260.505
622.255	15298.366
622.383	15252.753
622.512	15264.935
622.640	15255.957
622.768	15311.247
622.896	15388.892
623.024	15355.624
623.152	15342.839
623.280	15396.108
623.408	15310.860
623.537	15417.151
623.665	15357.484
623.793	15456.634
623.921	15388.204
624.049	15387.204
624.177	15390.301
624.305	15376.204
624.433	15396.570
624.562	15442.108
624.690	15536.505
624.818	15400.398
624.946	15410.677
625.074	15421.118
625.202	15430.344
625.330	15418.742
625.458	15559.957
625.587	15443.860
625.715	15518.591
625.843	15456.656
625.971	15508.957
626.099	15534.538
626.227	15550.484
626.355	15476.011
626.483	15608.237
626.612	15542.484
626.740	15625.355
626.868	15572.269
626.996	15671.720
627.124	15636.720
627.252	15594.516
627.380	15674.161
627.508	15609.624
627.637	15654.978
627.765	15712.129
627.893	15755.398
628.021	15826.860
628.149	15723.946
628.277	15820.656
628.405	15828.387
628.533	15780.204
628.662	15831.753
628.790	15947.968
628.918	15833.656
629.046	16008.538
629.174	15876.108
629.302	15953.667
629.430	15894.258
629.558	15975.032
629.687	15952.495
629.815	16020.387
629.943	16149.183
630.071	16114.462
630.199	16077.054
630.327	16182.194
630.455	16142.215
630.583	16170.183
630.712	16182.226
630.840	16226.398
630.968	16221.183
631.096	16243.656
631.224	16275.183
631.352	16453.097
631.480	16322.387
631.608	16508.892
631.737	16350.914
631.865	16530.505
631.993	16495.688
632.121	16667.667
632.249	16526.054
632.377	16500.280
632.505	16519.323
632.633	16582.333
632.762	16492.462
632.890	16562.011
633.018	16560.946
633.146	16573.785
633.274	16569.473
633.402	16627.527
633.530	16581.548
633.658	16637.387
633.787	16619.699
633.915	16616.194
634.043	16657.043
634.171	16663.366
634.299	16653.108
634.427	16654.871
634.555	16907.495
634.683	16716.452
634.812	16718.538
634.940	16683.269
635.068	16642.419
635.196	16667.860
635.324	16665.108
635.452	16651.570
635.580	16763.290
635.708	16631.065
635.837	16677.935
635.965	16643.602
636.093	16664.269
636.221	16604.355
636.349	16561.667
636.477	16589.118
636.605	16612.000
636.733	16587.667
636.862	16541.882
636.990	16601.849
637.118	16536.645
637.246	16498.581
637.374	16671.989
637.502	16461.065
637.630	16451.366
637.758	16462.624
637.887	16401.312
638.015	16540.065
638.143	16440.355
638.271	16391.613
638.399	16413.925
638.527	16400.495
638.655	16361.355
638.783	16360.323
638.912	16387.634
639.040	16283.624
639.168	16306.032
639.296	16245.473
639.424	16327.581
639.552	16297.269
639.680	16350.237
639.808	16280.538
639.937	16248.097
640.065	16231.849
640.193	16244.043
640.321	16350.742
640.449	16356.161
640.577	16229.796
640.705	16239.430
640.833	16260.656
640.962	16331.419
641.090	16210.118
641.218	16267.925
641.346	16357.473
641.474	16260.699
641.602	16303.914
641.730	16285.720
641.858	16276.946
641.987	16272.763
642.115	16457.312
642.243	16344.172
642.371	16508.011
642.499	16277.624
642.627	16408.430
642.755	16359.591
642.883	16371.505
643.012	16395.624
643.140	16442.344
643.268	16433.032
643.396	16376.280
643.524	16442.731
643.652	16541.527
643.780	16422.613
643.908	16433.269
644.037	16531.946
644.165	16538.495
644.293	16606.763
644.421	16478.473
644.549	16544.785
644.677	16594.452
644.805	16505.011
644.933	16510.871
645.062	16559.075
645.190	16688.581
645.318	16582.172
645.446	16515.462
645.574	16504.441
645.702	16589.828
645.830	16568.613
645.958	16504.968
646.087	16497.247
646.215	16479.849
646.343	16514.817
646.471	16662.065
646.599	16530.204
646.727	16567.742
646.855	16527.946
646.983	16493.871
647.112	16598.559
647.240	16493.828
647.368	16583.882
647.496	16496.290
647.624	16509.441
647.752	16504.409
647.880	16460.344
648.008	16485.312
648.137	16571.699
648.265	16460.247
648.393	16541.946
648.521	16418.817
648.649	16546.441
648.777	16515.473
648.905	16414.258
649.033	16479.613
649.162	16353.129
649.290	16275.054
649.418	16313.484
649.546	16484.495
649.674	16321.688
649.802	16280.871
649.930	16255.441
650.058	16204.849
650.187	16227.989
650.315	16178.140
650.443	16204.323
650.571	16141.086
650.699	16080.882
650.827	16092.000
650.955	16083.828
651.083	16120.742
651.212	16019.183
651.340	16066.140
651.468	15983.516
651.596	15994.581
651.724	15999.376
651.852	15935.484
651.980	15939.774
652.108	15899.667
652.237	15937.398
652.365	15854.742
652.493	15816.097
652.621	15793.054
652.749	15850.656
652.877	15800.043
653.005	15838.591
653.133	15748.903
653.262	15741.720
653.390	15680.054
653.518	15815.366
653.646	15645.624
653.774	15624.527
653.902	15708.398
654.030	15637.817
654.158	15569.978
654.287	15579.387
654.415	15573.978
654.543	15608.032
654.671	15533.054
654.799	15500.871
654.927	15468.720
655.055	15459.796
655.183	15429.452
655.312	15418.097
655.440	15419.495
655.568	15362.409
655.696	15473.280
655.824	15370.301
655.952	15340.097
656.080	15264.763
656.208	15325.097
656.337	15356.903
656.465	15436.032
656.593	15259.516
656.721	15302.097
656.849	15369.796
656.977	15169.108
657.105	15203.151
657.233	15195.430
657.362	15237.366
657.490	15193.957
657.618	15185.731
657.746	15146.419
657.874	15053.484
658.002	15003.505
658.130	15017.301
658.258	15021.247
658.387	14921.935
658.515	14967.280
658.643	14884.226
658.771	14983.710
658.899	14905.903
659.027	14884.968
659.155	14862.892
659.283	14862.484
659.412	14854.452
659.540	14794.677
659.668	14879.516
659.796	14888.237
659.924	14855.806
660.052	14898.290
660.180	14819.559
660.308	14865.624
660.437	14848.570
660.565	14776.656
660.693	14732.753
660.821	14869.172
660.949	14682.140
661.077	14720.258
661.205	14846.677
661.333	14691.968
661.462	14643.968
661.590	14779.828
661.718	14669.043
661.846	14668.376
661.974	14581.731
662.102	14575.290
662.230	14608.613
662.358	14516.817
662.487	14563.839
662.615	14535.591
662.743	14563.710
662.871	14510.129
662.999	14457.151
663.127	14454.527
663.255	14472.677
663.383	14570.301
663.512	14353.172
663.640	14390.925
663.768	14414.892
663.896	14367.527
664.024	14423.581
664.152	14381.215
664.280	14446.978
664.408	14335.097
664.537	14332.548
664.665	14359.054
664.793	14319.839
664.921	14272.398
665.049	14370.301
665.177	14264.860
665.305	14253.344
665.433	14279.548
665.562	14431.280
665.690	14294.688
665.818	14425.656
665.946	14193.161
666.074	14199.161
666.202	14174.462
666.330	14138.462
666.458	14592.333
666.587	14137.763
666.715	14171.570
666.843	14143.925
666.971	14150.183
667.099	14138.548
667.227	14200.710
667.355	14205.398
667.483	14094.634
667.612	14117.613
667.740	14130.656
667.868	14069.419
667.996	14053.376
668.124	14052.968
668.252	14154.473
668.380	14040.118
668.508	14025.613
668.637	14015.344
668.765	13999.817
668.893	14026.043
669.021	13918.828
669.149	14011.892
669.277	13864.806
669.405	14003.419
669.533	13985.946
669.662	13867.140
669.790	13838.441
669.918	13894.753
670.046	14014.075
670.174	13793.312
670.302	13776.688
670.430	13730.226
670.558	13816.849
670.687	13905.667
670.815	13695.409
670.943	13736.075
671.071	13664.247
671.199	13634.559
671.327	13601.226
671.455	13650.656
671.583	13587.581
671.712	13566.710
671.840	13612.731
671.968	13718.548
672.096	13668.860
672.224	13473.860
672.352	13473.280
672.480	13387.108
672.608	13484.172
672.737	13379.000
672.865	13352.591
672.993	13337.226
673.121	13351.634
673.249	13284.989
673.377	13256.043
673.505	13223.731
673.633	13278.753
673.762	13158.742
673.890	13174.774
674.018	13187.903
674.146	13085.075
674.274	13110.699
674.402	13146.602
674.530	13069.871
674.658	13022.495
674.787	13005.559
674.915	13111.634
675.043	12990.935
675.171	12926.226
675.299	12902.624
675.427	12840.161
675.555	12829.989
675.683	12840.710
675.812	12791.484
675.940	12790.387
676.068	12726.538
676.196	12751.763
676.324	12652.366
676.452	12618.161
676.580	12584.753
676.708	12558.710
676.837	12570.968
676.965	12678.505
677.093	12713.441
677.221	12537.032
677.349	12457.763
677.477	12513.344
677.605	12418.796
677.733	12398.774
677.862	12390.957
677.990	12367.419
678.118	12409.720
678.246	12291.538
678.374	12334.925
678.502	12247.720
678.630	12182.914
678.758	12219.720
678.887	12328.602
679.015	12113.269
679.143	12069.935
679.271	12095.978
679.399	12075.935
679.527	12111.495
679.655	12132.215
679.783	12028.559
679.912	12013.032
680.040	12143.419
680.168	11946.989
680.296	11968.237
680.424	11931.645
680.552	11927.957
680.680	11898.516
680.808	11834.366
680.937	11806.237
681.065	11854.699
681.193	11758.742
681.321	11730.505
681.449	11824.226
681.577	11742.892
681.705	11705.086
681.833	11739.925
681.962	11705.441
682.090	11647.387
682.218	11671.075
682.346	11680.742
682.474	11612.806
682.602	11584.720
682.730	11637.591
682.858	11586.172
682.987	11537.817
683.115	11558.172
683.243	11548.806
683.371	11537.935
683.499	11500.086
683.627	11549.731
683.755	11523.441
683.883	11469.108
684.012	11483.247
684.140	11418.774
684.268	11442.312
684.396	11509.989
684.524	11438.043
684.652	11472.355
684.780	11449.839
684.908	11427.591
685.037	11428.269
685.165	11393.430
685.293	11479.688
685.421	11414.527
685.549	11388.903
685.677	11375.688
685.805	11375.032
685.933	11313.753
686.062	11374.581
686.190	11300.043
686.318	11291.140
686.446	11280.333
686.574	11274.957
686.702	11318.387
686.830	11249.452
686.958	11326.011
687.087	11220.183
687.215	11237.312
687.343	11191.118
687.471	11373.194
687.599	11121.108
687.727	11123.011
687.855	11146.204
687.983	11079.849
688.112	11108.656
688.240	11104.323
688.368	11110.989
688.496	11073.527
688.624	11034.527
688.752	11182.161
688.880	11040.688
689.008	10991.280
689.137	11011.215
689.265	10929.581
689.393	10959.849
689.521	10951.742
689.649	11007.000
689.777	10956.957
689.905	10951.688
690.033	10854.989
690.162	10851.796
690.290	10881.892
690.418	10772.495
690.546	10830.946
690.674	10857.968
690.802	10824.817
690.930	10782.183
691.058	10766.355
691.187	10714.763
691.315	10690.495
691.443	10667.075
691.571	10676.516
691.699	10608.892
691.827	10583.280
691.955	10609.602
692.083	10569.129
692.212	10558.172
692.340	10557.312
692.468	10565.796
692.596	10513.527
692.724	10450.215
692.852	10520.978
692.980	10462.570
693.108	10465.968
693.237	10382.129
693.365	10351.183
693.493	10318.731
693.621	10299.194
693.749	10282.172
693.877	10303.387
694.005	10227.720
694.133	10209.699
694.262	10245.312
694.390	10133.387
694.518	10131.968
694.646	10132.548
694.774	10062.634
694.902	10084.430
695.030	10037.344
695.158	9969.763
695.287	9993.301
695.415	9979.183
695.543	9948.140
695.671	9860.774
695.799	9988.419
695.927	9846.355
696.055	9858.473
696.183	9793.441
696.312	9953.989
696.440	9774.290
696.568	9782.570
696.696	9671.817
696.824	9627.581
696.952	9594.183
697.080	9593.011
697.208	9576.968
697.337	9540.172
697.465	9522.323
697.593	9464.548
697.721	9580.892
697.849	9439.774
697.977	9478.108
698.105	9461.624
698.233	9416.688
698.362	9322.269
698.490	9463.925
698.618	9274.935
698.746	9264.376
698.874	9328.645
699.002	9265.656
699.130	9260.602
699.258	9170.075
699.387	9110.613
699.515	9156.624
699.643	9145.796
699.771	9209.796
699.899	9043.720
700.027	9000.903
700.155	9087.828
700.283	8933.280
700.412	8924.645
700.540	8948.000
700.668	8962.892
700.796	8818.376
700.924	8892.806
701.052	8881.441
701.180	8847.742
701.308	8754.613
701.437	8709.043
701.565	8702.914
701.693	8757.710
701.821	8869.333
701.949	8617.559
702.077	8629.914
702.205	8675.000
702.333	8559.989
702.462	8536.237
702.590	8587.258
702.718	8447.753
702.846	8628.839
702.974	8412.161
703.102	8381.817
703.230	8386.495
703.358	8345.011
703.487	8336.989
703.615	8298.914
703.743	8233.430
703.871	8243.710
703.999	8189.398
704.127	8155.699
704.255	8109.935
704.383	8163.376
704.512	8192.183
704.640	8134.677
704.768	8147.484
704.896	7995.387
705.024	7961.796
705.152	7967.366
705.280	7984.527
705.408	7836.688
705.537	7859.785
705.665	7884.269
705.793	7809.333
705.921	7777.753
706.049	7706.097
706.177	7736.505
706.305	7683.323
706.433	7725.140
706.562	7643.000
706.690	7643.677
706.818	7611.247
706.946	7548.398
707.074	7501.452
707.202	7461.000
707.330	7465.172
707.458	7411.172
707.587	7396.097
707.715	7415.462
707.843	7368.495
707.971	7399.935
708.099	7264.516
708.227	7285.731
708.355	7249.559
708.483	7218.108
708.612	7226.559
708.740	7154.215
708.868	7139.204
708.996	7208.011
709.124	7126.989
709.252	7066.892
709.380	7112.441
709.508	7023.237
709.637	7051.624
709.765	6985.677
709.893	7033.376
710.021	6933.978
710.149	7034.398
710.277	6869.860
710.405	6900.409
710.533	6824.806
710.662	6822.043
710.790	6919.323
710.918	6780.312
711.046	6799.548
711.174	6726.871
711.302	6745.796
711.430	6715.591
711.558	6725.129
711.687	6686.527
711.815	6619.581
711.943	6590.774
712.071	6577.366
712.199	6594.473
712.327	6651.108
712.455	6505.828
712.583	6698.355
712.712	6489.634
712.840	6529.548
712.968	6444.527
713.096	6434.559
713.224	6413.323
713.352	6393.269
713.480	6312.237
713.608	6317.602
713.737	6268.548
713.865	6337.505
713.993	6283.914
714.121	6267.785
714.249	6207.387
714.377	6194.473
714.505	6159.204
714.633	6167.172
714.762	6129.075
714.890	6117.409
715.018	6102.280
715.146	6125.538
715.274	6036.849
715.402	6037.978
715.530	6027.032
715.658	6037.215
715.787	5986.151
715.915	6084.677
716.043	5941.452
716.171	6064.710
716.299	5861.054
716.427	5937.817
716.555	5858.871
716.683	5820.161
716.812	5801.860
716.940	5768.882
717.068	5724.366
717.196	5896.742
717.324	5730.559
717.452	5709.753
717.580	5750.559
717.708	5634.194
717.837	5650.763
717.965	5658.763
718.093	5603.602
718.221	5602.925
718.349	5658.527
718.477	5522.849
718.605	5610.333
718.733	5534.323
718.862	5543.591
718.990	5434.011
719.118	5504.753
719.246	5416.419
719.374	5403.140
719.502	5425.484
719.630	5502.495
719.758	5296.602
719.887	5309.570
720.015	5338.591
720.143	5333.581
720.271	5218.151
720.399	5285.871
720.527	5217.462
720.655	5271.774
