70_70_0_Pol_at_750.00nm_cut_at_1179.00Y_01.dat
03.07.2023
11:07:56
cut middle at Y: 1179.00
top cursor: 1231 down cursor: 1127 mean of: 104 lines , 2560 datapoints
wavelength(nm)	intensity[arb. units]
585.996	9661.596
586.124	9454.125
586.252	9476.385
586.380	9495.625
586.508	9548.596
586.637	9595.779
586.765	9557.962
586.893	9555.279
587.021	9620.048
587.149	9607.183
587.277	9634.404
587.405	9621.817
587.533	9711.202
587.662	9721.798
587.790	9665.558
587.918	9716.087
588.046	9662.750
588.174	9686.221
588.302	9668.644
588.430	9689.481
588.558	9710.798
588.687	9741.962
588.815	9707.433
588.943	9715.779
589.071	9691.519
589.199	9715.058
589.327	9694.327
589.455	9783.154
589.583	9691.615
589.712	9719.308
589.840	9691.654
589.968	9694.423
590.096	9714.231
590.224	9690.385
590.352	9771.144
590.480	9679.529
590.608	9680.779
590.737	9739.183
590.865	9798.692
590.993	9667.865
591.121	9710.740
591.249	9713.144
591.377	9725.385
591.505	9772.135
591.633	9692.798
591.762	9702.115
591.890	9686.538
592.018	9810.010
592.146	9756.029
592.274	9719.000
592.402	9710.962
592.530	9926.317
592.658	9812.606
592.787	9766.125
592.915	9877.894
593.043	9764.192
593.171	9804.433
593.299	9801.308
593.427	9796.750
593.555	9822.577
593.683	9839.856
593.812	9823.779
593.940	9832.452
594.068	9879.115
594.196	9857.971
594.324	9891.712
594.452	10056.279
594.580	9920.154
594.708	10001.481
594.837	9959.394
594.965	10059.212
595.093	9990.885
595.221	10071.058
595.349	10082.683
595.477	10088.500
595.605	10062.529
595.733	10095.673
595.862	10110.125
595.990	10138.760
596.118	10167.606
596.246	10231.260
596.374	10156.481
596.502	10187.212
596.630	10222.500
596.758	10188.923
596.887	10199.635
597.015	10206.529
597.143	10214.596
597.271	10219.356
597.399	10283.894
597.527	10215.250
597.655	10259.606
597.783	10279.548
597.912	10270.606
598.040	10296.913
598.168	10257.433
598.296	10228.788
598.424	10421.490
598.552	10247.423
598.680	10246.558
598.808	10276.510
598.937	10247.952
599.065	10264.596
599.193	10315.837
599.321	10313.058
599.449	10243.452
599.577	10233.413
599.705	10227.615
599.833	10209.788
599.962	10196.692
600.090	10251.750
600.218	10213.635
600.346	10191.038
600.474	10178.298
600.602	10176.471
600.730	10211.192
600.858	10187.337
600.987	10257.375
601.115	10245.231
601.243	10277.981
601.371	10272.144
601.499	10255.971
601.627	10267.433
601.755	10253.019
601.883	10293.548
602.012	10162.096
602.140	10309.683
602.268	10267.740
602.396	10409.615
602.524	10292.644
602.652	10353.558
602.780	10342.173
602.908	10372.548
603.037	10434.548
603.165	10410.933
603.293	10452.231
603.421	10483.865
603.549	10460.798
603.677	10486.606
603.805	10481.644
603.933	10510.029
604.062	10601.269
604.190	10654.788
604.318	10652.654
604.446	10594.654
604.574	10727.029
604.702	10733.952
604.830	10671.490
604.958	10722.856
605.087	10743.913
605.215	10807.519
605.343	10897.856
605.471	10848.327
605.599	10851.423
605.727	11005.856
605.855	10934.096
605.983	10992.731
606.112	11019.404
606.240	10987.885
606.368	10999.115
606.496	10985.731
606.624	11087.490
606.752	11028.606
606.880	11099.279
607.008	11045.192
607.137	11075.404
607.265	11162.346
607.393	11136.413
607.521	11225.260
607.649	11154.962
607.777	11149.990
607.905	11177.587
608.033	11127.250
608.162	11137.202
608.290	11127.240
608.418	11271.500
608.546	11230.375
608.674	11228.500
608.802	11165.712
608.930	11184.212
609.058	11143.481
609.187	11136.154
609.315	11159.894
609.443	11145.942
609.571	11256.394
609.699	11125.192
609.827	11200.288
609.955	11168.317
610.083	11067.990
610.212	11104.846
610.340	11046.154
610.468	11060.077
610.596	11095.288
610.724	11059.221
610.852	11158.096
610.980	11110.135
611.108	11038.298
611.237	11035.904
611.365	11080.019
611.493	11078.404
611.621	11069.721
611.749	11097.471
611.877	11126.721
612.005	11070.365
612.133	11137.000
612.262	11095.981
612.390	11173.952
612.518	11192.471
612.646	11112.096
612.774	11198.385
612.902	11192.510
613.030	11171.663
613.158	11167.394
613.287	11255.683
613.415	11117.971
613.543	11193.221
613.671	11191.827
613.799	11235.750
613.927	11265.423
614.055	11305.269
614.183	11287.154
614.312	11207.106
614.440	11382.365
614.568	11319.827
614.696	11326.587
614.824	11343.731
614.952	11431.058
615.080	11368.000
615.208	11439.288
615.337	11514.327
615.465	11436.933
615.593	11495.000
615.721	11479.385
615.849	11577.288
615.977	11515.635
616.105	11545.317
616.233	11552.606
616.362	11647.596
616.490	11580.913
616.618	11638.365
616.746	11737.788
616.874	11655.798
617.002	11693.308
617.130	11707.154
617.258	11663.971
617.387	11700.000
617.515	11743.221
617.643	11692.356
617.771	11774.760
617.899	11711.154
618.027	11781.721
618.155	11762.337
618.283	11773.471
618.412	11808.154
618.540	11865.779
618.668	11799.808
618.796	11801.808
618.924	11757.875
619.052	11812.173
619.180	11783.894
619.308	11762.817
619.437	11770.144
619.565	11793.779
619.693	11764.923
619.821	11816.154
619.949	11768.827
620.077	11769.817
620.205	11833.212
620.333	11845.250
620.462	11761.192
620.590	11780.846
620.718	11797.212
620.846	11787.269
620.974	11764.625
621.102	11808.452
621.230	11825.904
621.358	11920.269
621.487	11745.067
621.615	11808.712
621.743	11714.817
621.871	11798.433
621.999	11694.692
622.127	11716.625
622.255	11711.288
622.383	11672.663
622.512	11681.990
622.640	11652.394
622.768	11728.250
622.896	11783.269
623.024	11722.327
623.152	11676.635
623.280	11746.952
623.408	11689.577
623.537	11717.163
623.665	11676.865
623.793	11727.404
623.921	11665.971
624.049	11659.173
624.177	11658.548
624.305	11638.279
624.433	11689.510
624.562	11650.462
624.690	11770.462
624.818	11553.577
624.946	11618.904
625.074	11573.173
625.202	11592.154
625.330	11615.913
625.458	11713.510
625.587	11617.000
625.715	11653.212
625.843	11591.346
625.971	11622.779
626.099	11596.462
626.227	11620.298
626.355	11583.394
626.483	11630.135
626.612	11533.548
626.740	11587.442
626.868	11586.212
626.996	11644.702
627.124	11574.683
627.252	11576.971
627.380	11566.077
627.508	11533.692
627.637	11588.587
627.765	11585.029
627.893	11616.779
628.021	11674.038
628.149	11572.538
628.277	11664.067
628.405	11571.404
628.533	11604.260
628.662	11590.077
628.790	11696.846
628.918	11608.788
629.046	11743.952
629.174	11594.981
629.302	11636.087
629.430	11589.750
629.558	11669.423
629.687	11554.260
629.815	11678.712
629.943	11785.260
630.071	11674.433
630.199	11626.308
630.327	11691.779
630.455	11700.990
630.583	11685.010
630.712	11714.673
630.840	11708.663
630.968	11744.490
631.096	11688.385
631.224	11713.587
631.352	11882.577
631.480	11719.346
631.608	11943.769
631.737	11741.250
631.865	11855.433
631.993	11818.212
632.121	11887.952
632.249	11795.673
632.377	11794.163
632.505	11784.837
632.633	11787.808
632.762	11750.885
632.890	11747.702
633.018	11771.269
633.146	11731.942
633.274	11715.038
633.402	11759.529
633.530	11709.250
633.658	11760.183
633.787	11720.712
633.915	11714.692
634.043	11737.067
634.171	11722.135
634.299	11733.471
634.427	11668.442
634.555	11911.577
634.683	11683.990
634.812	11688.231
634.940	11629.673
635.068	11650.567
635.196	11649.721
635.324	11619.913
635.452	11639.221
635.580	11723.644
635.708	11573.567
635.837	11588.106
635.965	11590.337
636.093	11557.163
636.221	11545.663
636.349	11476.519
636.477	11484.740
636.605	11516.327
636.733	11453.250
636.862	11433.308
636.990	11461.413
637.118	11443.221
637.246	11375.490
637.374	11523.933
637.502	11345.663
637.630	11314.654
637.758	11335.587
637.887	11232.788
638.015	11367.971
638.143	11286.846
638.271	11227.923
638.399	11247.337
638.527	11136.394
638.655	11166.779
638.783	11187.644
638.912	11208.721
639.040	11113.529
639.168	11095.327
639.296	11047.240
639.424	11123.760
639.552	11067.106
639.680	11067.885
639.808	11049.413
639.937	10985.721
640.065	10958.990
640.193	10982.567
640.321	11045.212
640.449	11006.846
640.577	10947.962
640.705	10942.875
640.833	10922.048
640.962	11039.038
641.090	10886.327
641.218	10879.096
641.346	10969.471
641.474	10918.596
641.602	10909.596
641.730	10858.250
641.858	10822.923
641.987	10784.231
642.115	11002.423
642.243	10857.096
642.371	10977.615
642.499	10821.788
642.627	10877.894
642.755	10843.048
642.883	10814.173
643.012	10820.163
643.140	10868.721
643.268	10850.038
643.396	10742.990
643.524	10812.125
643.652	10867.269
643.780	10777.135
643.908	10754.240
644.037	10851.500
644.165	10857.625
644.293	10898.240
644.421	10736.760
644.549	10786.779
644.677	10790.356
644.805	10721.933
644.933	10687.308
645.062	10761.452
645.190	10875.712
645.318	10756.038
645.446	10664.519
645.574	10626.971
645.702	10717.010
645.830	10689.875
645.958	10613.202
646.087	10647.577
646.215	10601.558
646.343	10621.000
646.471	10761.721
646.599	10609.981
646.727	10589.096
646.855	10551.000
646.983	10550.538
647.112	10627.260
647.240	10504.404
647.368	10606.087
647.496	10529.288
647.624	10522.462
647.752	10494.712
647.880	10432.712
648.008	10465.471
648.137	10508.538
648.265	10422.048
648.393	10497.221
648.521	10375.356
648.649	10515.625
648.777	10458.490
648.905	10378.846
649.033	10453.952
649.162	10279.212
649.290	10250.615
649.418	10261.096
649.546	10445.413
649.674	10245.019
649.802	10215.663
649.930	10170.144
650.058	10127.779
650.187	10177.490
650.315	10112.452
650.443	10131.394
650.571	10048.760
650.699	10019.760
650.827	10046.885
650.955	9994.000
651.083	10033.250
651.212	9949.654
651.340	9974.750
651.468	9930.038
651.596	9922.279
651.724	9916.587
651.852	9863.798
651.980	9882.740
652.108	9823.596
652.237	9828.788
652.365	9776.538
652.493	9748.894
652.621	9740.087
652.749	9728.221
652.877	9718.904
653.005	9736.183
653.133	9675.596
653.262	9638.298
653.390	9620.471
653.518	9734.702
653.646	9572.327
653.774	9545.115
653.902	9634.000
654.030	9571.817
654.158	9515.769
654.287	9539.019
654.415	9481.433
654.543	9519.000
654.671	9419.721
654.799	9414.250
654.927	9424.404
655.055	9369.250
655.183	9380.288
655.312	9356.904
655.440	9320.019
655.568	9303.596
655.696	9339.288
655.824	9299.500
655.952	9259.452
656.080	9232.846
656.208	9197.548
656.337	9236.163
656.465	9349.837
656.593	9172.346
656.721	9244.606
656.849	9257.817
656.977	9039.077
657.105	9111.154
657.233	9111.260
657.362	9150.769
657.490	9093.106
657.618	9086.192
657.746	9075.019
657.874	8942.702
658.002	8915.269
658.130	8888.519
658.258	8898.962
658.387	8811.837
658.515	8806.212
658.643	8809.913
658.771	8874.663
658.899	8787.548
659.027	8774.077
659.155	8771.471
659.283	8709.192
659.412	8727.510
659.540	8695.269
659.668	8748.702
659.796	8723.875
659.924	8709.240
660.052	8795.298
660.180	8701.125
660.308	8745.596
660.437	8745.240
660.565	8651.519
660.693	8566.846
660.821	8736.452
660.949	8544.481
661.077	8581.471
661.205	8731.712
661.333	8553.375
661.462	8503.394
661.590	8609.096
661.718	8510.615
661.846	8527.048
661.974	8479.087
662.102	8484.337
662.230	8450.404
662.358	8341.894
662.487	8408.404
662.615	8372.462
662.743	8393.106
662.871	8343.423
662.999	8290.923
663.127	8306.837
663.255	8288.269
663.383	8382.577
663.512	8201.702
663.640	8257.269
663.768	8260.058
663.896	8193.077
664.024	8215.010
664.152	8186.135
664.280	8250.308
664.408	8148.827
664.537	8143.788
664.665	8130.375
664.793	8130.423
664.921	8088.462
665.049	8130.856
665.177	8053.625
665.305	8071.865
665.433	8066.654
665.562	8188.087
665.690	8068.558
665.818	8197.808
665.946	7952.346
666.074	7959.029
666.202	7948.519
666.330	7893.413
666.458	8318.817
666.587	7883.221
666.715	7882.423
666.843	7852.077
666.971	7864.519
667.099	7898.673
667.227	7912.327
667.355	7882.702
667.483	7811.673
667.612	7826.019
667.740	7790.548
667.868	7760.154
667.996	7748.615
668.124	7766.442
668.252	7845.942
668.380	7672.135
668.508	7733.288
668.637	7666.846
668.765	7702.029
668.893	7674.308
669.021	7602.692
669.149	7694.000
669.277	7569.010
669.405	7698.279
669.533	7638.923
669.662	7559.663
669.790	7525.788
669.918	7597.327
670.046	7664.029
670.174	7463.298
670.302	7450.038
670.430	7407.558
670.558	7487.106
670.687	7560.990
670.815	7390.308
670.943	7449.308
671.071	7304.962
671.199	7298.971
671.327	7311.029
671.455	7322.721
671.583	7301.298
671.712	7259.231
671.840	7296.394
671.968	7392.394
672.096	7382.712
672.224	7166.529
672.352	7148.250
672.480	7110.298
672.608	7142.000
672.737	7113.221
672.865	7045.471
672.993	7042.635
673.121	7026.510
673.249	7017.750
673.377	6970.548
673.505	6932.087
673.633	7008.308
673.762	6918.442
673.890	6934.029
674.018	6911.010
674.146	6875.808
674.274	6844.077
674.402	6920.885
674.530	6850.423
674.658	6806.462
674.787	6770.596
674.915	6926.606
675.043	6760.990
675.171	6745.981
675.299	6716.596
675.427	6666.442
675.555	6673.750
675.683	6693.317
675.812	6615.779
675.940	6607.846
676.068	6549.846
676.196	6595.029
676.324	6542.394
676.452	6498.173
676.580	6476.846
676.708	6477.173
676.837	6440.587
676.965	6543.548
677.093	6589.192
677.221	6458.856
677.349	6371.962
677.477	6436.500
677.605	6315.817
677.733	6355.317
677.862	6341.644
677.990	6335.779
678.118	6376.510
678.246	6286.606
678.374	6327.846
678.502	6247.625
678.630	6178.442
678.758	6199.433
678.887	6319.731
679.015	6113.260
679.143	6135.279
679.271	6096.981
679.399	6108.269
679.527	6117.952
679.655	6128.865
679.783	6018.904
679.912	6007.885
680.040	6205.337
680.168	6008.115
680.296	6040.981
680.424	5972.971
680.552	5928.394
680.680	5911.394
680.808	5883.433
680.937	5853.442
681.065	5929.529
681.193	5855.433
681.321	5804.038
681.449	5843.933
681.577	5841.808
681.705	5756.327
681.833	5812.077
681.962	5769.490
682.090	5721.490
682.218	5737.000
682.346	5736.202
682.474	5687.346
682.602	5669.933
682.730	5727.413
682.858	5642.846
682.987	5638.240
683.115	5678.106
683.243	5627.683
683.371	5625.769
683.499	5560.452
683.627	5616.250
683.755	5574.442
683.883	5548.808
684.012	5577.673
684.140	5503.548
684.268	5506.462
684.396	5561.260
684.524	5488.673
684.652	5533.837
684.780	5503.433
684.908	5480.712
685.037	5488.721
685.165	5458.250
685.293	5542.856
685.421	5449.317
685.549	5426.683
685.677	5407.654
685.805	5449.788
685.933	5380.356
686.062	5363.644
686.190	5339.260
686.318	5331.442
686.446	5321.154
686.574	5294.923
686.702	5369.750
686.830	5273.702
686.958	5326.135
687.087	5235.442
687.215	5256.558
687.343	5229.260
687.471	5380.279
687.599	5160.288
687.727	5178.692
687.855	5155.183
687.983	5139.173
688.112	5197.327
688.240	5125.048
688.368	5148.077
688.496	5102.433
688.624	5072.721
688.752	5225.750
688.880	5074.933
689.008	5058.288
689.137	5063.163
689.265	5010.317
689.393	5021.990
689.521	4979.135
689.649	5084.471
689.777	5001.394
689.905	5040.163
690.033	4932.702
690.162	4907.365
690.290	4973.837
690.418	4889.625
690.546	4924.942
690.674	4929.192
690.802	4932.567
690.930	4874.894
691.058	4882.721
691.187	4829.606
691.315	4814.385
691.443	4801.952
691.571	4813.288
691.699	4761.962
691.827	4758.308
691.955	4740.635
692.083	4706.942
692.212	4732.394
692.340	4707.433
692.468	4744.192
692.596	4700.750
692.724	4645.135
692.852	4692.327
692.980	4688.683
693.108	4713.385
693.237	4632.673
693.365	4601.606
693.493	4570.538
693.621	4600.567
693.749	4537.125
693.877	4623.558
694.005	4504.981
694.133	4511.971
694.262	4558.663
694.390	4450.452
694.518	4485.865
694.646	4472.798
694.774	4394.644
694.902	4412.529
695.030	4407.606
695.158	4398.298
695.287	4367.721
695.415	4367.529
695.543	4355.240
695.671	4295.981
695.799	4423.212
695.927	4321.721
696.055	4311.433
696.183	4249.125
696.312	4430.058
696.440	4256.731
696.568	4278.529
696.696	4172.865
696.824	4170.827
696.952	4163.923
697.080	4168.692
697.208	4083.221
697.337	4119.106
697.465	4089.125
697.593	4039.990
697.721	4175.606
697.849	4052.750
697.977	4088.702
698.105	4110.298
698.233	4066.308
698.362	3979.692
698.490	4110.596
698.618	3954.962
698.746	3925.663
698.874	4023.529
699.002	3953.202
699.130	3959.452
699.258	3920.212
699.387	3834.663
699.515	3883.625
699.643	3887.779
699.771	3955.558
699.899	3842.067
700.027	3783.154
700.155	3847.904
700.283	3730.067
700.412	3751.952
700.540	3793.202
700.668	3839.779
700.796	3723.587
700.924	3748.048
701.052	3764.587
701.180	3725.192
701.308	3660.875
701.437	3655.481
701.565	3628.106
701.693	3656.740
701.821	3810.231
701.949	3584.394
702.077	3591.894
702.205	3673.827
702.333	3584.625
702.462	3552.471
702.590	3604.000
702.718	3498.769
702.846	3691.288
702.974	3465.481
703.102	3462.423
703.230	3500.000
703.358	3437.933
703.487	3437.106
703.615	3413.337
703.743	3386.548
703.871	3377.317
703.999	3388.317
704.127	3371.702
704.255	3342.385
704.383	3381.125
704.512	3401.808
704.640	3370.481
704.768	3421.615
704.896	3299.721
705.024	3246.538
705.152	3284.183
705.280	3322.865
705.408	3203.163
705.537	3198.135
705.665	3214.221
705.793	3197.048
705.921	3182.683
706.049	3131.990
706.177	3185.596
706.305	3119.087
706.433	3170.923
706.562	3138.712
706.690	3152.500
706.818	3122.202
706.946	3074.183
707.074	3038.298
707.202	3004.183
707.330	3025.490
707.458	2997.587
707.587	2993.875
707.715	3008.067
707.843	3020.048
707.971	3006.635
708.099	2917.635
708.227	2918.442
708.355	2935.673
708.483	2881.952
708.612	2929.865
708.740	2858.740
708.868	2872.510
708.996	2922.375
709.124	2918.317
709.252	2878.500
709.380	2874.846
709.508	2827.288
709.637	2860.154
709.765	2813.952
709.893	2867.423
710.021	2774.202
710.149	2897.913
710.277	2744.029
710.405	2758.827
710.533	2792.596
710.662	2719.077
710.790	2872.933
710.918	2728.385
711.046	2762.279
711.174	2722.769
711.302	2736.490
711.430	2716.510
711.558	2752.779
711.687	2715.144
711.815	2668.962
711.943	2639.500
712.071	2666.779
712.199	2676.654
712.327	2738.808
712.455	2628.808
712.583	2782.500
712.712	2640.596
712.840	2673.894
712.968	2612.894
713.096	2613.481
713.224	2597.125
713.352	2588.510
713.480	2568.269
713.608	2556.019
713.737	2537.231
713.865	2567.442
713.993	2548.423
714.121	2549.337
714.249	2551.683
714.377	2534.827
714.505	2517.269
714.633	2533.510
714.762	2520.779
714.890	2496.067
715.018	2524.346
715.146	2528.462
715.274	2495.221
715.402	2479.038
715.530	2503.558
715.658	2475.885
715.787	2468.875
715.915	2506.154
716.043	2480.885
716.171	2439.260
716.299	2441.288
716.427	2442.644
716.555	2434.337
716.683	2431.317
716.812	2428.683
716.940	2424.029
717.068	2418.135
717.196	2415.962
717.324	2393.692
717.452	2373.317
717.580	2402.029
717.708	2365.721
717.837	2374.442
717.965	2343.933
718.093	2360.721
718.221	2339.433
718.349	2338.644
718.477	2334.990
718.605	2318.923
718.733	2310.567
718.862	2308.962
718.990	2312.000
719.118	2306.000
719.246	2271.356
719.374	2271.529
719.502	2252.471
719.630	2278.442
719.758	2246.808
719.887	2240.096
720.015	2229.173
720.143	2234.375
720.271	2205.173
720.399	2216.596
720.527	2207.798
720.655	2204.808
720.783	2196.154
720.912	2176.192
721.040	2169.442
721.168	2187.865
721.296	2148.183
721.424	2165.010
721.552	2145.087
721.680	2124.481
721.808	2127.808
721.937	2111.721
722.065	2111.317
722.193	2100.635
722.321	2106.846
722.449	2106.875
722.577	2070.221
722.705	2058.346
722.833	2060.288
722.962	2057.981
723.090	2027.471
723.218	2008.462
723.346	2022.981
723.474	2018.952
723.602	2017.096
