90_70_wo_Pol_at_750.00nm_cut_at_1179.00Y_01.dat
03.07.2023
11:26:52
cut middle at Y: 1179.00
top cursor: 1231 down cursor: 1127 mean of: 104 lines , 2560 datapoints
wavelength(nm)	intensity[arb. units]
585.996	26335.260
586.124	25892.048
586.252	25947.923
586.380	25928.413
586.508	26056.067
586.637	26183.683
586.765	26276.231
586.893	26340.346
587.021	26376.702
587.149	26413.500
587.277	26518.837
587.405	26527.817
587.533	26636.115
587.662	26633.385
587.790	26688.673
587.918	26699.337
588.046	26685.048
588.174	26742.096
588.302	26795.615
588.430	26808.356
588.558	26772.750
588.687	26828.577
588.815	26909.288
588.943	26829.731
589.071	26867.837
589.199	26911.423
589.327	26878.490
589.455	26895.760
589.583	26959.298
589.712	26913.183
589.840	26881.038
589.968	26879.240
590.096	26994.529
590.224	26998.048
590.352	27135.981
590.480	27040.596
590.608	26948.904
590.737	27037.510
590.865	27045.288
590.993	26980.981
591.121	26974.077
591.249	27032.558
591.377	27045.433
591.505	27104.558
591.633	27027.481
591.762	27128.173
591.890	27084.692
592.018	27169.740
592.146	27200.923
592.274	27174.260
592.402	27209.904
592.530	27414.971
592.658	27304.423
592.787	27381.538
592.915	27393.971
593.043	27321.327
593.171	27430.731
593.299	27415.913
593.427	27452.346
593.555	27582.490
593.683	27591.731
593.812	27587.019
593.940	27670.163
594.068	27763.519
594.196	27781.875
594.324	27892.500
594.452	28028.404
594.580	27972.385
594.708	28065.827
594.837	28121.490
594.965	28240.173
595.093	28279.385
595.221	28401.750
595.349	28404.115
595.477	28443.202
595.605	28521.163
595.733	28554.933
595.862	28563.375
595.990	28591.635
596.118	28690.952
596.246	28757.760
596.374	28767.144
596.502	28822.452
596.630	28853.471
596.758	28902.913
596.887	28959.798
597.015	29023.048
597.143	29015.452
597.271	29037.644
597.399	29140.827
597.527	29103.279
597.655	29156.904
597.783	29172.019
597.912	29194.587
598.040	29173.221
598.168	29223.019
598.296	29191.337
598.424	29259.567
598.552	29163.721
598.680	29155.327
598.808	29307.404
598.937	29248.346
599.065	29223.067
599.193	29276.990
599.321	29286.933
599.449	29243.077
599.577	29175.221
599.705	29191.433
599.833	29184.067
599.962	29172.010
600.090	29172.712
600.218	29147.067
600.346	29161.231
600.474	29180.269
600.602	29145.673
600.730	29203.308
600.858	29238.154
600.987	29342.712
601.115	29231.808
601.243	29273.981
601.371	29387.212
601.499	29373.038
601.627	29406.779
601.755	29422.029
601.883	29469.712
602.012	29369.413
602.140	29437.163
602.268	29574.106
602.396	29702.606
602.524	29692.231
602.652	29852.115
602.780	29841.327
602.908	29920.481
603.037	30013.490
603.165	30064.827
603.293	30126.462
603.421	30198.981
603.549	30239.885
603.677	30319.567
603.805	30494.067
603.933	30555.433
604.062	30704.346
604.190	30811.144
604.318	30855.048
604.446	30900.856
604.574	30971.231
604.702	31038.163
604.830	31100.587
604.958	31179.144
605.087	31366.077
605.215	31548.663
605.343	31647.385
605.471	31598.538
605.599	31665.779
605.727	31885.163
605.855	31942.202
605.983	31989.798
606.112	32096.731
606.240	32111.529
606.368	32162.471
606.496	32157.769
606.624	32301.971
606.752	32260.692
606.880	32414.087
607.008	32375.731
607.137	32412.423
607.265	32513.135
607.393	32539.279
607.521	32632.423
607.649	32557.221
607.777	32520.260
607.905	32541.423
608.033	32582.721
608.162	32573.038
608.290	32510.327
608.418	32703.404
608.546	32672.010
608.674	32689.538
608.802	32545.452
608.930	32630.212
609.058	32612.933
609.187	32600.721
609.315	32520.952
609.443	32576.558
609.571	32600.317
609.699	32515.596
609.827	32598.856
609.955	32522.519
610.083	32471.279
610.212	32494.423
610.340	32411.510
610.468	32408.779
610.596	32414.712
610.724	32368.058
610.852	32389.846
610.980	32414.981
611.108	32352.971
611.237	32385.587
611.365	32363.538
611.493	32333.846
611.621	32395.279
611.749	32417.990
611.877	32421.221
612.005	32454.654
612.133	32496.154
612.262	32492.519
612.390	32575.356
612.518	32636.952
612.646	32628.019
612.774	32684.298
612.902	32716.933
613.030	32804.442
613.158	32670.471
613.287	32850.548
613.415	32808.750
613.543	32891.798
613.671	32900.202
613.799	33013.615
613.927	33045.625
614.055	33116.702
614.183	33177.548
614.312	33174.221
614.440	33331.087
614.568	33363.087
614.696	33438.337
614.824	33435.519
614.952	33548.115
615.080	33567.183
615.208	33727.731
615.337	33800.115
615.465	33760.115
615.593	33918.087
615.721	33840.442
615.849	33981.452
615.977	33971.856
616.105	34083.125
616.233	34163.529
616.362	34260.519
616.490	34310.875
616.618	34377.933
616.746	34470.827
616.874	34491.923
617.002	34552.144
617.130	34563.808
617.258	34582.212
617.387	34693.538
617.515	34717.038
617.643	34689.269
617.771	34773.135
617.899	34795.644
618.027	34833.490
618.155	34904.702
618.283	34882.760
618.412	34992.481
618.540	34996.404
618.668	34986.615
618.796	34984.231
618.924	34974.288
619.052	34990.577
619.180	34982.933
619.308	34945.356
619.437	34919.442
619.565	34932.942
619.693	34970.548
619.821	34996.548
619.949	34910.615
620.077	34985.827
620.205	34999.029
620.333	34987.625
620.462	34978.279
620.590	34979.163
620.718	34994.760
620.846	34987.413
620.974	34966.529
621.102	35017.394
621.230	34953.981
621.358	35113.548
621.487	34977.452
621.615	34898.135
621.743	34866.433
621.871	34960.510
621.999	34851.308
622.127	34858.471
622.255	34839.894
622.383	34805.173
622.512	34817.913
622.640	34805.202
622.768	34874.250
622.896	34831.981
623.024	34759.519
623.152	34795.048
623.280	34830.721
623.408	34783.423
623.537	34840.250
623.665	34750.558
623.793	34795.173
623.921	34769.115
624.049	34745.990
624.177	34752.192
624.305	34646.635
624.433	34712.317
624.562	34697.125
624.690	34772.250
624.818	34518.769
624.946	34581.115
625.074	34611.481
625.202	34572.904
625.330	34522.442
625.458	34610.163
625.587	34556.144
625.715	34604.692
625.843	34516.663
625.971	34608.644
626.099	34522.173
626.227	34551.788
626.355	34520.673
626.483	34547.846
626.612	34544.471
626.740	34636.462
626.868	34571.125
626.996	34644.875
627.124	34529.202
627.252	34470.471
627.380	34564.865
627.508	34528.298
627.637	34543.144
627.765	34648.529
627.893	34638.904
628.021	34623.529
628.149	34516.644
628.277	34631.519
628.405	34648.538
628.533	34616.481
628.662	34655.260
628.790	34772.346
628.918	34705.587
629.046	34878.202
629.174	34720.356
629.302	34786.644
629.430	34769.529
629.558	34860.087
629.687	34773.231
629.815	34899.144
629.943	35013.298
630.071	34932.077
630.199	34957.558
630.327	35020.606
630.455	35062.077
630.583	35069.317
630.712	35035.029
630.840	35087.038
630.968	35109.154
631.096	35139.337
631.224	35175.481
631.352	35272.644
631.480	35255.865
631.608	35410.423
631.737	35194.933
631.865	35368.163
631.993	35335.885
632.121	35474.173
632.249	35332.346
632.377	35282.519
632.505	35409.529
632.633	35440.269
632.762	35317.779
632.890	35353.260
633.018	35324.837
633.146	35263.231
633.274	35278.558
633.402	35350.750
633.530	35283.404
633.658	35236.413
633.787	35206.356
633.915	35228.760
634.043	35242.221
634.171	35219.692
634.299	35162.654
634.427	35120.163
634.555	35359.019
634.683	35080.894
634.812	35038.769
634.940	34924.221
635.068	34926.413
635.196	34867.712
635.324	34838.423
635.452	34818.058
635.580	34822.144
635.708	34721.962
635.837	34655.885
635.965	34537.577
636.093	34576.183
636.221	34394.769
636.349	34333.250
636.477	34272.519
636.605	34290.913
636.733	34252.856
636.862	34161.221
636.990	34071.683
637.118	33977.385
637.246	33908.779
637.374	33956.077
637.502	33748.221
637.630	33666.817
637.758	33613.452
637.887	33502.808
638.015	33607.365
638.143	33500.558
638.271	33333.385
638.399	33333.750
638.527	33221.913
638.655	33201.933
638.783	33107.212
638.912	33067.173
639.040	32933.337
639.168	32859.615
639.296	32821.308
639.424	32850.144
639.552	32780.827
639.680	32829.154
639.808	32657.365
639.937	32566.087
640.065	32600.385
640.193	32599.288
640.321	32649.250
640.449	32567.885
640.577	32506.942
640.705	32436.558
640.833	32401.683
640.962	32442.654
641.090	32350.135
641.218	32320.471
641.346	32344.740
641.474	32349.942
641.602	32245.183
641.730	32210.663
641.858	32193.077
641.987	32149.913
642.115	32386.346
642.243	32167.798
642.371	32348.788
642.499	32110.481
642.627	32124.702
642.755	32077.577
642.883	32087.692
643.012	32044.490
643.140	32059.058
643.268	32083.529
643.396	31992.481
643.524	32006.192
643.652	32033.654
643.780	31945.596
643.908	31933.885
644.037	32018.115
644.165	31984.240
644.293	32070.683
644.421	31861.817
644.549	31898.510
644.677	31885.587
644.805	31801.798
644.933	31753.115
645.062	31857.596
645.190	31935.452
645.318	31793.490
645.446	31741.260
645.574	31746.663
645.702	31718.798
645.830	31674.837
645.958	31556.212
646.087	31552.337
646.215	31523.135
646.343	31528.077
646.471	31665.615
646.599	31435.510
646.727	31446.471
646.855	31400.644
646.983	31401.942
647.112	31384.298
647.240	31303.837
647.368	31279.837
647.496	31245.837
647.624	31106.721
647.752	31156.337
647.880	31136.923
648.008	31062.202
648.137	31115.558
648.265	31026.712
648.393	31086.827
648.521	30930.625
648.649	31027.423
648.777	30831.942
648.905	30729.740
649.033	30779.567
649.162	30584.933
649.290	30499.125
649.418	30426.683
649.546	30588.769
649.674	30391.231
649.802	30342.202
649.930	30210.433
650.058	30108.010
650.187	30173.971
650.315	30038.587
650.443	29996.096
650.571	29892.106
650.699	29815.894
650.827	29773.106
650.955	29640.173
651.083	29686.490
651.212	29600.240
651.340	29500.385
651.468	29473.125
651.596	29339.971
651.724	29353.846
651.852	29269.990
651.980	29213.240
652.108	29071.183
652.237	29116.115
652.365	28979.394
652.493	28932.923
652.621	28875.010
652.749	28882.971
652.877	28765.875
653.005	28737.481
653.133	28638.788
653.262	28541.808
653.390	28495.990
653.518	28542.663
653.646	28392.375
653.774	28341.827
653.902	28352.952
654.030	28303.913
654.158	28190.942
654.287	28120.760
654.415	28035.048
654.543	28111.663
654.671	27979.288
654.799	27927.221
654.927	27851.587
655.055	27831.548
655.183	27805.058
655.312	27677.221
655.440	27624.183
655.568	27586.192
655.696	27583.933
655.824	27506.894
655.952	27475.038
656.080	27345.442
656.208	27331.740
656.337	27332.683
656.465	27477.365
656.593	27171.337
656.721	27233.385
656.849	27177.933
656.977	26974.567
657.105	26976.606
657.233	26986.865
657.362	26944.067
657.490	26925.413
657.618	26842.481
657.746	26802.865
657.874	26550.096
658.002	26502.548
658.130	26345.856
658.258	26311.538
658.387	26251.327
658.515	26223.692
658.643	26198.952
658.771	26192.163
658.899	26088.654
659.027	26028.817
659.155	26005.548
659.283	25885.721
659.412	25844.433
659.540	25802.596
659.668	25789.788
659.796	25836.125
659.924	25808.865
660.052	25913.740
660.180	25743.702
660.308	25827.327
660.437	25671.125
660.565	25571.615
660.693	25403.846
660.821	25508.721
660.949	25326.865
661.077	25310.769
661.205	25433.365
661.333	25252.712
661.462	25161.240
661.590	25162.846
661.718	25030.587
661.846	25044.837
661.974	24930.250
662.102	24906.538
662.230	24830.077
662.358	24683.692
662.487	24715.913
662.615	24712.731
662.743	24649.029
662.871	24684.135
662.999	24508.663
663.127	24493.606
663.255	24403.846
663.383	24508.577
663.512	24304.856
663.640	24272.154
663.768	24330.298
663.896	24245.798
664.024	24164.673
664.152	24103.904
664.280	24124.779
664.408	24020.692
664.537	23994.702
664.665	23996.038
664.793	23958.913
664.921	23875.587
665.049	23884.548
665.177	23770.990
665.305	23758.779
665.433	23697.481
665.562	23819.856
665.690	23680.010
665.818	23780.269
665.946	23513.788
666.074	23544.567
666.202	23481.337
666.330	23408.837
666.458	23700.654
666.587	23331.452
666.715	23314.394
666.843	23196.192
666.971	23220.058
667.099	23190.115
667.227	23221.971
667.355	23155.144
667.483	23092.510
667.612	23157.029
667.740	23017.615
667.868	22903.721
667.996	22938.567
668.124	22900.029
668.252	22935.904
668.380	22791.625
668.508	22796.808
668.637	22697.471
668.765	22708.981
668.893	22573.000
669.021	22574.240
669.149	22552.058
669.277	22410.760
669.405	22527.010
669.533	22465.654
669.662	22338.385
669.790	22342.490
669.918	22260.375
670.046	22372.135
670.174	22150.452
670.302	22093.663
670.430	21994.019
670.558	22054.500
670.687	22110.481
670.815	21865.433
670.943	21869.769
671.071	21788.856
671.199	21691.356
671.327	21681.452
671.455	21728.096
671.583	21599.240
671.712	21573.048
671.840	21541.471
671.968	21580.827
672.096	21539.750
672.224	21300.885
672.352	21259.135
672.480	21182.298
672.608	21146.154
672.737	21078.683
672.865	21012.096
672.993	21014.125
673.121	20881.596
673.249	20879.019
673.377	20836.000
673.505	20760.933
673.633	20760.865
673.762	20658.000
673.890	20643.798
674.018	20668.048
674.146	20499.087
674.274	20479.058
674.402	20421.567
674.530	20331.452
674.658	20239.500
674.787	20209.442
674.915	20292.019
675.043	20115.413
675.171	20073.192
675.299	19980.471
675.427	19888.779
675.555	19909.048
675.683	19865.635
675.812	19730.817
675.940	19704.702
676.068	19582.971
676.196	19627.952
676.324	19477.644
676.452	19402.135
676.580	19388.202
676.708	19305.519
676.837	19234.154
676.965	19299.904
677.093	19338.125
677.221	19144.288
677.349	18963.135
677.477	19012.260
677.605	18845.231
677.733	18863.010
677.862	18789.202
677.990	18812.779
678.118	18772.115
678.246	18683.433
678.374	18636.788
678.502	18484.000
678.630	18411.298
678.758	18450.000
678.887	18511.692
679.015	18263.048
679.143	18231.760
679.271	18163.740
679.399	18189.510
679.527	18126.048
679.655	18131.038
679.783	18028.279
679.912	17915.519
680.040	18059.635
680.168	17841.029
680.296	17798.433
680.424	17774.510
680.552	17669.625
680.680	17628.519
680.808	17561.663
680.937	17549.673
681.065	17552.750
681.193	17479.173
681.321	17381.587
681.449	17443.490
681.577	17362.846
681.705	17289.087
681.833	17273.308
681.962	17197.067
682.090	17127.010
682.218	17109.452
682.346	17087.087
682.474	17034.327
682.602	16941.885
682.730	17002.135
682.858	16892.740
682.987	16890.538
683.115	16855.163
683.243	16786.817
683.371	16742.250
683.499	16703.654
683.627	16702.760
683.755	16653.202
683.883	16578.731
684.012	16562.692
684.140	16521.192
684.268	16503.202
684.396	16524.087
684.524	16432.673
684.652	16450.683
684.780	16431.038
684.908	16349.471
685.037	16372.038
685.165	16226.769
685.293	16260.721
685.421	16216.596
685.549	16179.577
685.677	16094.029
685.805	16117.173
685.933	16023.462
686.062	15979.510
686.190	15931.433
686.318	15910.250
686.446	15845.202
686.574	15822.740
686.702	15827.606
686.830	15744.981
686.958	15773.788
687.087	15658.231
687.215	15653.260
687.343	15601.808
687.471	15686.288
687.599	15468.288
687.727	15482.510
687.855	15375.115
687.983	15325.346
688.112	15372.663
688.240	15319.000
688.368	15284.721
688.496	15216.654
688.624	15151.481
688.752	15274.808
688.880	15094.904
689.008	15029.615
689.137	15016.769
689.265	14929.702
689.393	14919.692
689.521	14898.019
689.649	14930.788
689.777	14848.125
689.905	14873.423
690.033	14728.865
690.162	14652.606
690.290	14688.596
690.418	14590.856
690.546	14624.769
690.674	14605.231
690.802	14558.769
690.930	14491.798
691.058	14421.337
691.187	14344.067
691.315	14350.019
691.443	14259.567
691.571	14276.183
691.699	14174.721
691.827	14188.644
691.955	14126.067
692.083	14103.837
692.212	14044.769
692.340	14037.077
692.468	14027.490
692.596	13980.038
692.724	13878.971
692.852	13897.981
692.980	13852.404
693.108	13826.875
693.237	13719.231
693.365	13666.135
693.493	13692.981
693.621	13608.231
693.749	13530.471
693.877	13549.971
694.005	13409.135
694.133	13370.163
694.262	13413.692
694.390	13268.673
694.518	13276.269
694.646	13255.760
694.774	13146.606
694.902	13123.240
695.030	13120.442
695.158	13043.260
695.287	12974.683
695.415	12961.510
695.543	12931.606
695.671	12803.798
695.799	12914.865
695.927	12759.971
696.055	12782.317
696.183	12663.250
696.312	12832.529
696.440	12613.308
696.568	12602.760
696.696	12477.375
696.824	12423.317
696.952	12394.760
697.080	12380.625
697.208	12315.452
697.337	12252.240
697.465	12235.538
697.593	12133.192
697.721	12253.250
697.849	12089.192
697.977	12093.308
698.105	12071.808
698.233	12008.462
698.362	11899.058
698.490	12022.394
698.618	11844.731
698.746	11774.933
698.874	11816.433
699.002	11723.923
699.130	11765.750
699.258	11656.240
699.387	11554.327
699.515	11595.692
699.643	11584.990
699.771	11603.952
699.899	11416.990
700.027	11378.558
700.155	11447.683
700.283	11269.712
700.412	11267.798
700.540	11304.519
700.668	11314.173
700.796	11154.452
700.924	11158.510
701.052	11122.058
701.180	11090.077
701.308	11005.433
701.437	10948.462
701.565	10939.817
701.693	10935.865
701.821	11084.683
701.949	10848.548
702.077	10804.029
702.205	10829.365
702.333	10740.404
702.462	10664.231
702.590	10657.519
702.718	10563.413
702.846	10732.000
702.974	10484.942
703.102	10455.087
703.230	10453.183
703.358	10387.029
703.487	10338.385
703.615	10333.231
703.743	10260.577
703.871	10268.548
703.999	10174.221
704.127	10107.577
704.255	10096.827
704.383	10097.529
704.512	10096.740
704.640	10019.019
704.768	10054.154
704.896	9926.952
705.024	9837.019
705.152	9832.808
705.280	9854.923
705.408	9736.019
705.537	9688.885
705.665	9668.808
705.793	9610.942
705.921	9565.635
706.049	9497.538
706.177	9525.808
706.305	9458.635
706.433	9468.000
706.562	9388.365
706.690	9356.471
706.818	9331.933
706.946	9237.519
707.074	9171.885
707.202	9155.115
707.330	9142.317
707.458	9084.769
707.587	9018.058
707.715	9056.019
707.843	9022.663
707.971	9015.942
708.099	8869.327
708.227	8878.125
708.355	8842.596
708.483	8769.846
708.612	8772.183
708.740	8727.308
708.868	8669.067
708.996	8715.019
709.124	8671.115
709.252	8626.712
709.380	8586.692
709.508	8549.115
709.637	8541.962
709.765	8505.769
709.893	8527.606
710.021	8382.423
710.149	8479.865
710.277	8314.356
710.405	8304.712
710.533	8273.221
710.662	8252.558
710.790	8358.529
710.918	8164.538
711.046	8184.519
711.174	8131.663
711.302	8143.712
711.430	8062.279
711.558	8099.952
711.687	8027.942
711.815	7965.298
711.943	7909.183
712.071	7932.683
712.199	7936.875
712.327	7950.375
712.455	7843.192
712.583	7993.462
712.712	7789.615
712.840	7803.712
712.968	7708.327
713.096	7705.385
713.224	7658.442
713.352	7635.183
713.480	7543.692
713.608	7534.481
713.737	7530.221
713.865	7559.856
713.993	7498.115
714.121	7486.808
714.249	7349.875
714.377	7363.048
714.505	7337.067
714.633	7347.692
714.762	7302.798
714.890	7263.202
715.018	7244.481
715.146	7250.115
715.274	7169.154
715.402	7149.798
715.530	7132.721
715.658	7159.500
715.787	7071.606
715.915	7152.125
716.043	7010.856
716.171	7166.635
716.299	6959.077
716.427	7042.442
716.555	6911.990
716.683	6896.942
716.812	6872.519
716.940	6836.154
717.068	6791.760
717.196	6983.115
717.324	6787.212
717.452	6750.548
717.580	6794.096
717.708	6672.317
717.837	6681.327
717.965	6701.990
718.093	6629.971
718.221	6638.106
718.349	6639.135
718.477	6513.500
718.605	6625.317
718.733	6519.740
718.862	6553.404
718.990	6425.173
719.118	6491.279
719.246	6376.760
719.374	6359.721
719.502	6411.433
719.630	6476.260
719.758	6280.279
719.887	6242.154
720.015	6303.519
720.143	6297.702
