90_70_0_Pol_at_750.00nm_cut_at_1179.00Y_01.dat
03.07.2023
11:27:20
cut middle at Y: 1179.00
top cursor: 1231 down cursor: 1127 mean of: 104 lines , 2560 datapoints
wavelength(nm)	intensity[arb. units]
585.996	10387.654
586.124	10154.606
586.252	10171.385
586.380	10204.192
586.508	10242.635
586.637	10340.865
586.765	10289.240
586.893	10339.019
587.021	10395.538
587.149	10391.596
587.277	10432.173
587.405	10426.413
587.533	10478.125
587.662	10529.250
587.790	10476.635
587.918	10491.125
588.046	10464.019
588.174	10496.452
588.302	10497.365
588.430	10495.606
588.558	10549.692
588.687	10551.269
588.815	10508.615
588.943	10547.712
589.071	10525.558
589.199	10538.279
589.327	10527.048
589.455	10607.788
589.583	10557.827
589.712	10552.548
589.840	10512.231
589.968	10534.654
590.096	10530.721
590.224	10523.644
590.352	10623.192
590.480	10542.712
590.608	10519.548
590.737	10584.163
590.865	10657.529
590.993	10500.385
591.121	10579.279
591.249	10550.538
591.377	10531.404
591.505	10689.692
591.633	10573.260
591.762	10552.038
591.890	10584.058
592.018	10689.183
592.146	10602.019
592.274	10634.481
592.402	10622.721
592.530	10835.375
592.658	10692.663
592.787	10707.337
592.915	10786.202
593.043	10639.596
593.171	10721.096
593.299	10706.452
593.427	10690.731
593.555	10754.125
593.683	10742.481
593.812	10811.510
593.940	10830.279
594.068	10818.096
594.196	10821.413
594.324	10886.808
594.452	11031.990
594.580	10940.019
594.708	10971.538
594.837	10975.779
594.965	11077.692
595.093	11027.962
595.221	11085.240
595.349	11099.923
595.477	11113.894
595.605	11110.260
595.733	11178.529
595.862	11178.827
595.990	11219.481
596.118	11265.510
596.246	11317.462
596.374	11219.058
596.502	11270.029
596.630	11293.788
596.758	11311.538
596.887	11300.798
597.015	11300.490
597.143	11355.154
597.271	11336.760
597.399	11439.875
597.527	11372.769
597.655	11378.490
597.783	11437.202
597.912	11372.019
598.040	11448.173
598.168	11425.558
598.296	11375.596
598.424	11585.010
598.552	11384.981
598.680	11424.981
598.808	11507.971
598.937	11423.413
599.065	11450.875
599.193	11498.192
599.321	11477.404
599.449	11456.250
599.577	11422.240
599.705	11482.192
599.833	11414.519
599.962	11389.260
600.090	11420.317
600.218	11446.971
600.346	11431.356
600.474	11418.385
600.602	11406.798
600.730	11412.923
600.858	11441.731
600.987	11493.529
601.115	11434.087
601.243	11496.519
601.371	11516.510
601.499	11533.433
601.627	11536.375
601.755	11505.808
601.883	11569.865
602.012	11487.250
602.140	11564.269
602.268	11518.135
602.396	11671.413
602.524	11574.240
602.652	11676.587
602.780	11659.308
602.908	11682.615
603.037	11783.337
603.165	11793.894
603.293	11785.808
603.421	11816.837
603.549	11808.394
603.677	11884.904
603.805	11912.673
603.933	11917.250
604.062	11961.288
604.190	12056.202
604.318	12059.096
604.446	12028.779
604.574	12152.029
604.702	12166.625
604.830	12123.740
604.958	12150.462
605.087	12243.260
605.215	12338.288
605.343	12370.452
605.471	12369.192
605.599	12380.288
605.727	12481.702
605.855	12447.923
605.983	12467.760
606.112	12526.548
606.240	12499.654
606.368	12524.596
606.496	12548.625
606.624	12637.856
606.752	12598.731
606.880	12652.288
607.008	12587.846
607.137	12656.452
607.265	12753.731
607.393	12682.413
607.521	12753.212
607.649	12666.962
607.777	12675.712
607.905	12711.240
608.033	12654.827
608.162	12710.260
608.290	12661.250
608.418	12792.087
608.546	12773.029
608.674	12788.721
608.802	12702.135
608.930	12734.846
609.058	12659.779
609.187	12687.115
609.315	12705.423
609.443	12689.721
609.571	12800.202
609.699	12648.000
609.827	12756.827
609.955	12679.990
610.083	12615.067
610.212	12632.029
610.340	12630.952
610.468	12650.250
610.596	12669.538
610.724	12593.817
610.852	12641.865
610.980	12650.548
611.108	12609.721
611.237	12581.029
611.365	12627.385
611.493	12607.990
611.621	12589.827
611.749	12587.596
611.877	12679.173
612.005	12621.154
612.133	12667.404
612.262	12660.269
612.390	12723.942
612.518	12756.567
612.646	12679.240
612.774	12773.288
612.902	12755.067
613.030	12745.115
613.158	12740.067
613.287	12847.154
613.415	12758.760
613.543	12793.279
613.671	12811.087
613.799	12871.654
613.927	12857.606
614.055	12902.817
614.183	12957.981
614.312	12900.452
614.440	13077.394
614.568	13011.625
614.696	13018.712
614.824	13023.279
614.952	13072.096
615.080	13080.125
615.208	13122.510
615.337	13272.385
615.465	13160.721
615.593	13231.567
615.721	13215.894
615.849	13323.471
615.977	13266.490
616.105	13270.260
616.233	13321.529
616.362	13386.240
616.490	13335.490
616.618	13422.029
616.746	13493.615
616.874	13502.529
617.002	13502.106
617.130	13510.500
617.258	13477.067
617.387	13530.846
617.515	13538.837
617.643	13521.385
617.771	13627.865
617.899	13542.365
618.027	13606.481
618.155	13645.163
618.283	13618.952
618.412	13675.298
618.540	13708.106
618.668	13668.567
618.796	13677.933
618.924	13628.615
619.052	13656.087
619.180	13617.683
619.308	13654.567
619.437	13629.779
619.565	13665.779
619.693	13639.087
619.821	13679.644
619.949	13605.337
620.077	13655.587
620.205	13690.740
620.333	13656.000
620.462	13604.356
620.590	13672.048
620.718	13643.452
620.846	13704.606
620.974	13679.644
621.102	13719.279
621.230	13671.846
621.358	13809.346
621.487	13610.404
621.615	13665.308
621.743	13584.923
621.871	13645.163
621.999	13564.933
622.127	13593.587
622.255	13590.096
622.383	13555.173
622.512	13567.096
622.640	13573.173
622.768	13586.933
622.896	13616.942
623.024	13590.481
623.152	13565.788
623.280	13645.683
623.408	13572.135
623.537	13578.183
623.665	13506.538
623.793	13595.327
623.921	13593.933
624.049	13512.000
624.177	13555.462
624.305	13561.183
624.433	13537.221
624.562	13554.192
624.690	13663.029
624.818	13467.683
624.946	13486.538
625.074	13441.952
625.202	13456.221
625.330	13459.904
625.458	13543.808
625.587	13472.106
625.715	13521.885
625.843	13455.923
625.971	13462.298
626.099	13461.962
626.227	13487.413
626.355	13456.125
626.483	13490.875
626.612	13443.490
626.740	13477.625
626.868	13432.212
626.996	13495.231
627.124	13447.529
627.252	13404.817
627.380	13447.365
627.508	13366.769
627.637	13436.202
627.765	13441.010
627.893	13496.163
628.021	13554.663
628.149	13430.462
628.277	13501.558
628.405	13452.942
628.533	13467.308
628.662	13498.712
628.790	13570.394
628.918	13517.413
629.046	13645.356
629.174	13521.048
629.302	13565.769
629.430	13501.010
629.558	13583.106
629.687	13515.885
629.815	13591.433
629.943	13655.423
630.071	13621.096
630.199	13605.817
630.327	13662.894
630.455	13645.038
630.583	13668.731
630.712	13644.433
630.840	13685.423
630.968	13690.894
631.096	13667.837
631.224	13647.606
631.352	13840.500
631.480	13714.346
631.608	13893.615
631.737	13699.558
631.865	13827.837
631.993	13814.933
632.121	13964.029
632.249	13810.077
632.377	13788.981
632.505	13767.788
632.633	13807.567
632.762	13768.183
632.890	13733.817
633.018	13787.452
633.146	13734.913
633.274	13716.135
633.402	13768.433
633.530	13724.433
633.658	13736.154
633.787	13712.115
633.915	13714.433
634.043	13699.413
634.171	13690.856
634.299	13686.760
634.427	13682.288
634.555	13882.913
634.683	13653.385
634.812	13670.712
634.940	13589.375
635.068	13635.702
635.196	13591.731
635.324	13551.279
635.452	13545.760
635.580	13671.221
635.708	13492.769
635.837	13510.221
635.965	13517.346
636.093	13467.048
636.221	13431.154
636.349	13346.269
636.477	13322.212
636.605	13415.798
636.733	13314.865
636.862	13310.452
636.990	13309.740
637.118	13269.327
637.246	13223.962
637.374	13339.683
637.502	13148.433
637.630	13131.231
637.758	13140.231
637.887	13090.904
638.015	13187.327
638.143	13118.375
638.271	13012.894
638.399	13044.654
638.527	12960.269
638.655	12982.587
638.783	12942.288
638.912	12998.019
639.040	12918.433
639.168	12874.404
639.296	12854.981
639.424	12930.288
639.552	12853.558
639.680	12848.269
639.808	12828.837
639.937	12773.481
640.065	12756.587
640.193	12730.346
640.321	12827.096
640.449	12773.933
640.577	12681.404
640.705	12716.038
640.833	12699.856
640.962	12777.875
641.090	12650.596
641.218	12657.500
641.346	12754.962
641.474	12668.529
641.602	12614.298
641.730	12624.692
641.858	12558.019
641.987	12567.423
642.115	12740.221
642.243	12603.490
642.371	12737.702
642.499	12587.375
642.627	12632.471
642.755	12578.212
642.883	12586.481
643.012	12584.663
643.140	12619.981
643.268	12590.433
643.396	12502.769
643.524	12551.385
643.652	12630.375
643.780	12491.567
643.908	12484.683
644.037	12620.712
644.165	12584.635
644.293	12673.846
644.421	12468.837
644.549	12504.769
644.677	12518.740
644.805	12447.231
644.933	12423.260
645.062	12489.269
645.190	12580.183
645.318	12461.904
645.446	12395.923
645.574	12394.817
645.702	12429.625
645.830	12419.038
645.958	12330.490
646.087	12345.519
646.215	12316.279
646.343	12295.558
646.471	12446.250
646.599	12278.904
646.727	12274.144
646.855	12263.760
646.983	12229.827
647.112	12324.260
647.240	12206.202
647.368	12295.538
647.496	12196.885
647.624	12179.548
647.752	12139.163
647.880	12143.663
648.008	12125.615
648.137	12152.115
648.265	12099.644
648.393	12177.788
648.521	12058.596
648.649	12163.385
648.777	12065.990
648.905	12021.827
649.033	12051.615
649.162	11948.529
649.290	11876.202
649.418	11864.538
649.546	12057.135
649.674	11839.644
649.802	11830.567
649.930	11774.212
650.058	11713.606
650.187	11744.731
650.315	11692.173
650.443	11696.942
650.571	11637.433
650.699	11607.865
650.827	11591.356
650.955	11531.481
651.083	11621.798
651.212	11501.106
651.340	11504.933
651.468	11456.837
651.596	11465.058
651.724	11443.760
651.852	11367.846
651.980	11378.788
652.108	11347.163
652.237	11347.423
652.365	11277.490
652.493	11264.125
652.621	11223.048
652.749	11248.279
652.877	11192.048
653.005	11242.423
653.133	11142.933
653.262	11111.567
653.390	11101.173
653.518	11218.750
653.646	11026.356
653.774	11019.096
653.902	11128.817
654.030	11069.587
654.158	10975.115
654.287	11011.154
654.415	10937.154
654.543	10979.115
654.671	10900.462
654.799	10899.413
654.927	10885.394
655.055	10818.702
655.183	10827.442
655.312	10804.875
655.440	10748.212
655.568	10768.683
655.696	10794.173
655.824	10739.587
655.952	10719.452
656.080	10619.375
656.208	10668.942
656.337	10691.702
656.465	10809.769
656.593	10619.817
656.721	10674.279
656.849	10668.471
656.977	10494.096
657.105	10545.567
657.233	10540.279
657.362	10579.875
657.490	10519.356
657.618	10515.760
657.746	10470.683
657.874	10383.375
658.002	10311.327
658.130	10292.356
658.258	10283.971
658.387	10210.462
658.515	10240.385
658.643	10209.010
658.771	10250.077
658.899	10145.500
659.027	10164.702
659.155	10113.913
659.283	10093.913
659.412	10075.760
659.540	10068.731
659.668	10089.596
659.796	10128.817
659.924	10093.712
660.052	10156.327
660.180	10079.298
660.308	10106.048
660.437	10074.837
660.565	9997.779
660.693	9917.260
660.821	10120.077
660.949	9908.317
661.077	9945.433
661.205	10040.115
661.333	9865.356
661.462	9825.413
661.590	9920.365
661.718	9831.577
661.846	9827.019
661.974	9785.615
662.102	9790.731
662.230	9771.490
662.358	9664.663
662.487	9716.529
662.615	9700.038
662.743	9663.865
662.871	9661.250
662.999	9578.163
663.127	9606.683
663.255	9575.106
663.383	9691.558
663.512	9518.433
663.640	9555.596
663.768	9570.952
663.896	9482.510
664.024	9452.625
664.152	9478.385
664.280	9541.587
664.408	9441.029
664.537	9396.654
664.665	9424.712
664.793	9400.635
664.921	9347.952
665.049	9385.731
665.177	9320.538
665.305	9303.952
665.433	9303.288
665.562	9440.846
665.690	9304.135
665.818	9425.837
665.946	9213.913
666.074	9170.712
666.202	9197.433
666.330	9138.433
666.458	9565.212
666.587	9103.423
666.715	9149.462
666.843	9081.452
666.971	9099.010
667.099	9111.548
667.227	9130.317
667.355	9129.173
667.483	9033.923
667.612	9054.769
667.740	9015.010
667.868	8988.269
667.996	8950.163
668.124	8991.644
668.252	9056.837
668.380	8926.692
668.508	8936.250
668.637	8873.365
668.765	8901.029
668.893	8883.750
669.021	8805.760
669.149	8830.337
669.277	8737.183
669.405	8859.433
669.533	8835.538
669.662	8706.721
669.790	8709.654
669.918	8713.740
670.046	8860.712
670.174	8638.288
670.302	8606.519
670.430	8581.846
670.558	8654.163
670.687	8715.058
670.815	8532.260
670.943	8622.375
671.071	8495.375
671.199	8440.971
671.327	8451.596
671.455	8484.846
671.583	8418.894
671.712	8392.731
671.840	8450.837
671.968	8532.269
672.096	8495.923
672.224	8309.721
672.352	8273.750
672.480	8224.087
672.608	8281.683
672.737	8235.952
672.865	8183.500
672.993	8168.625
673.121	8129.125
673.249	8130.885
673.377	8086.923
673.505	8051.913
673.633	8100.231
673.762	8034.635
673.890	8031.337
674.018	8006.635
674.146	7968.558
674.274	7962.048
674.402	7976.260
674.530	7944.981
674.658	7854.240
674.787	7823.471
674.915	7960.452
675.043	7842.356
675.171	7832.183
675.299	7780.644
675.427	7728.827
675.555	7726.202
675.683	7734.875
675.812	7694.317
675.940	7674.327
676.068	7640.769
676.196	7648.962
676.324	7586.308
676.452	7518.538
676.580	7501.904
676.708	7479.433
676.837	7480.837
676.965	7549.952
677.093	7589.654
677.221	7453.817
677.349	7398.635
677.477	7457.288
677.605	7334.760
677.733	7329.962
677.862	7318.558
677.990	7307.731
678.118	7352.163
678.246	7270.154
678.374	7308.106
678.502	7220.692
678.630	7179.913
678.758	7199.346
678.887	7329.221
679.015	7088.952
679.143	7078.462
679.271	7078.375
679.399	7043.433
679.527	7070.212
679.655	7092.788
679.783	6973.663
679.912	6983.288
680.040	7161.260
680.168	6949.721
680.296	6972.202
680.424	6899.808
680.552	6890.260
680.680	6867.865
680.808	6862.452
680.937	6799.721
681.065	6880.625
681.193	6775.288
681.321	6732.567
681.449	6825.279
681.577	6763.269
681.705	6710.317
681.833	6744.115
681.962	6698.500
682.090	6657.115
682.218	6651.000
682.346	6669.654
682.474	6621.558
682.602	6595.548
682.730	6634.846
682.858	6552.721
682.987	6553.750
683.115	6589.885
683.243	6545.587
683.371	6528.471
683.499	6471.731
683.627	6516.433
683.755	6493.971
683.883	6447.192
684.012	6458.173
684.140	6407.798
684.268	6405.942
684.396	6473.173
684.524	6357.673
684.652	6404.837
684.780	6380.548
684.908	6380.519
685.037	6365.144
685.165	6310.567
685.293	6388.596
685.421	6320.779
685.549	6316.433
685.677	6240.981
685.805	6312.596
685.933	6224.596
686.062	6245.798
686.190	6226.087
686.318	6182.144
686.446	6176.048
686.574	6143.538
686.702	6187.885
686.830	6115.317
686.958	6188.788
687.087	6073.865
687.215	6097.558
687.343	6094.231
687.471	6212.856
687.599	6003.433
687.727	6009.212
687.855	5959.144
687.983	5928.038
688.112	5987.327
688.240	5937.683
688.368	5965.260
688.496	5923.087
688.624	5876.192
688.752	6017.163
688.880	5862.154
689.008	5857.885
689.137	5861.712
689.265	5811.029
689.393	5774.769
689.521	5782.692
689.649	5882.500
689.777	5812.663
689.905	5849.394
690.033	5682.635
690.162	5686.154
690.290	5728.673
690.418	5648.144
690.546	5708.048
690.674	5712.452
690.802	5700.240
690.930	5633.481
691.058	5633.404
691.187	5573.356
691.315	5559.712
691.443	5540.933
691.571	5532.019
691.699	5525.865
691.827	5498.558
691.955	5486.202
692.083	5463.490
692.212	5487.029
692.340	5444.808
692.468	5455.654
692.596	5437.635
692.724	5389.606
692.852	5420.019
692.980	5408.221
693.108	5452.788
693.237	5348.904
693.365	5319.346
693.493	5278.394
693.621	5288.750
693.749	5236.221
693.877	5303.538
694.005	5196.135
694.133	5183.885
694.262	5260.433
694.390	5125.298
694.518	5132.183
694.646	5156.433
694.774	5084.462
694.902	5094.000
695.030	5084.423
695.158	5076.260
695.287	5043.962
695.415	5033.077
695.543	5049.904
695.671	4985.990
695.799	5074.663
695.927	4966.385
696.055	5000.538
696.183	4922.577
696.312	5119.894
696.440	4941.529
696.568	4929.096
696.696	4807.000
696.824	4791.837
696.952	4804.615
697.080	4825.548
697.208	4734.365
697.337	4754.500
697.465	4742.231
697.593	4708.913
697.721	4796.769
697.849	4670.981
697.977	4732.029
698.105	4742.740
698.233	4676.779
698.362	4599.625
698.490	4751.308
698.618	4571.519
698.746	4549.760
698.874	4622.442
699.002	4555.894
699.130	4571.577
699.258	4506.471
699.387	4459.221
699.515	4512.894
699.643	4513.885
699.771	4571.615
699.899	4440.337
700.027	4379.471
700.155	4461.317
700.283	4325.058
700.412	4368.365
700.540	4372.452
700.668	4416.250
700.796	4307.154
700.924	4327.856
701.052	4333.192
701.180	4304.375
701.308	4246.625
701.437	4218.192
701.565	4217.596
701.693	4242.875
701.821	4392.183
701.949	4142.106
702.077	4146.933
702.205	4238.894
702.333	4144.250
702.462	4096.798
702.590	4153.990
702.718	4058.452
702.846	4254.529
702.974	4022.567
703.102	4024.279
703.230	4046.519
703.358	4007.702
703.487	3961.077
703.615	3969.250
703.743	3944.673
703.871	3943.317
703.999	3927.702
704.127	3893.808
704.255	3887.125
704.383	3897.019
704.512	3950.048
704.640	3901.298
704.768	3932.471
704.896	3810.615
705.024	3756.721
705.152	3781.144
705.280	3831.577
705.408	3715.250
705.537	3711.952
705.665	3721.712
705.793	3703.990
705.921	3699.279
706.049	3645.490
706.177	3693.462
706.305	3626.885
706.433	3661.644
706.562	3649.288
706.690	3631.250
706.818	3638.913
706.946	3568.721
707.074	3544.481
707.202	3517.606
707.330	3528.808
707.458	3501.990
707.587	3470.077
707.715	3501.481
707.843	3502.240
707.971	3491.750
708.099	3418.452
708.227	3403.625
708.355	3419.510
708.483	3396.058
708.612	3412.048
708.740	3351.471
708.868	3345.952
708.996	3400.923
709.124	3389.356
709.252	3337.625
709.380	3342.308
709.508	3296.500
709.637	3313.029
709.765	3287.038
709.893	3315.683
710.021	3257.317
710.149	3334.462
710.277	3219.519
710.405	3235.942
710.533	3214.615
710.662	3175.442
710.790	3301.788
710.918	3170.000
711.046	3208.183
711.174	3143.885
711.302	3176.067
711.430	3125.529
711.558	3159.519
711.687	3108.058
711.815	3100.615
711.943	3059.519
712.071	3070.981
712.199	3074.856
712.327	3133.125
712.455	3028.413
712.583	3190.385
712.712	3050.154
712.840	3061.058
712.968	2995.221
713.096	2998.933
713.224	2969.875
713.352	2959.971
713.480	2916.010
713.608	2924.846
713.737	2888.894
713.865	2927.212
713.993	2929.442
714.121	2892.635
714.249	2850.644
714.377	2841.625
714.505	2844.933
714.633	2852.827
714.762	2826.817
714.890	2812.827
715.018	2801.923
715.146	2838.385
715.274	2778.625
715.402	2779.577
715.530	2774.971
715.658	2779.615
715.787	2775.654
715.915	2837.692
716.043	2733.913
716.171	2858.635
716.299	2679.260
716.427	2753.048
716.555	2675.327
716.683	2668.702
716.812	2649.260
716.940	2647.529
717.068	2602.865
717.196	2786.269
717.324	2636.356
717.452	2622.135
717.580	2657.577
717.708	2570.673
717.837	2596.587
717.965	2619.048
718.093	2579.087
718.221	2612.587
718.349	2616.750
718.477	2527.769
718.605	2620.106
718.733	2547.087
718.862	2563.587
718.990	2513.125
719.118	2562.192
719.246	2487.163
719.374	2475.971
719.502	2529.096
719.630	2594.327
719.758	2478.865
719.887	2432.712
720.015	2484.125
720.143	2508.808
720.271	2447.654
720.399	2461.567
720.527	2432.692
720.655	2480.212
720.783	2428.913
720.912	2412.692
721.040	2408.125
721.168	2442.183
721.296	2408.087
721.424	2400.712
721.552	2398.510
721.680	2395.702
721.808	2406.952
721.937	2388.433
722.065	2377.135
722.193	2357.721
722.321	2377.712
722.449	2358.231
722.577	2338.212
