90_110_90_Pol_at_750.00nm_cut_at_1179.00Y_01.dat
03.07.2023
11:28:32
cut middle at Y: 1179.00
top cursor: 1231 down cursor: 1127 mean of: 104 lines , 2560 datapoints
wavelength(nm)	intensity[arb. units]
585.996	9471.529
586.124	9276.356
586.252	9256.587
586.380	9290.750
586.508	9318.337
586.637	9413.644
586.765	9373.192
586.893	9410.519
587.021	9437.529
587.149	9424.308
587.277	9462.683
587.405	9458.779
587.533	9505.240
587.662	9578.625
587.790	9490.471
587.918	9525.173
588.046	9508.337
588.174	9541.288
588.302	9528.404
588.430	9546.029
588.558	9556.404
588.687	9565.404
588.815	9551.471
588.943	9579.221
589.071	9544.587
589.199	9559.096
589.327	9548.096
589.455	9612.144
589.583	9584.644
589.712	9576.462
589.840	9551.000
589.968	9561.817
590.096	9569.519
590.224	9569.125
590.352	9607.106
590.480	9555.721
590.608	9545.433
590.737	9583.375
590.865	9663.058
590.993	9561.269
591.121	9556.846
591.249	9556.221
591.377	9546.183
591.505	9682.106
591.633	9563.337
591.762	9583.692
591.890	9564.096
592.018	9663.837
592.146	9579.683
592.274	9594.077
592.402	9577.481
592.530	9774.106
592.658	9667.144
592.787	9682.192
592.915	9707.356
593.043	9595.731
593.171	9638.596
593.299	9686.356
593.427	9674.221
593.555	9657.769
593.683	9707.731
593.812	9689.135
593.940	9707.750
594.068	9755.038
594.196	9718.663
594.324	9793.260
594.452	9969.423
594.580	9826.654
594.708	9864.808
594.837	9854.558
594.965	9919.269
595.093	9892.500
595.221	9955.712
595.349	9940.404
595.477	9956.240
595.605	9989.760
595.733	9979.183
595.862	10024.048
595.990	10016.558
596.118	10038.337
596.246	10123.548
596.374	10043.048
596.502	10083.163
596.630	10116.423
596.758	10078.346
596.887	10098.481
597.015	10103.346
597.143	10121.481
597.271	10115.856
597.399	10186.808
597.527	10138.385
597.655	10130.471
597.783	10172.760
597.912	10168.654
598.040	10172.702
598.168	10159.808
598.296	10116.865
598.424	10338.635
598.552	10104.817
598.680	10149.548
598.808	10198.442
598.937	10184.365
599.065	10165.260
599.193	10211.654
599.321	10193.606
599.449	10145.750
599.577	10137.202
599.705	10160.981
599.833	10170.596
599.962	10086.337
600.090	10163.231
600.218	10151.837
600.346	10129.913
600.474	10117.692
600.602	10105.558
600.730	10087.462
600.858	10128.962
600.987	10208.356
601.115	10134.394
601.243	10232.596
601.371	10234.442
601.499	10199.317
601.627	10205.587
601.755	10178.452
601.883	10232.394
602.012	10132.712
602.140	10234.087
602.268	10217.856
602.396	10372.683
602.524	10219.327
602.652	10343.490
602.780	10340.173
602.908	10338.971
603.037	10428.808
603.165	10430.452
603.293	10408.481
603.421	10436.962
603.549	10448.885
603.677	10487.462
603.805	10488.538
603.933	10547.423
604.062	10581.692
604.190	10646.183
604.318	10655.635
604.446	10627.933
604.574	10739.279
604.702	10774.010
604.830	10678.625
604.958	10744.067
605.087	10798.962
605.215	10854.500
605.343	10936.990
605.471	10915.875
605.599	10913.615
605.727	10997.558
605.855	10973.971
605.983	11020.596
606.112	11063.365
606.240	11042.317
606.368	11055.548
606.496	11051.510
606.624	11131.760
606.752	11087.327
606.880	11184.538
607.008	11149.375
607.137	11108.587
607.265	11253.808
607.393	11183.010
607.521	11275.327
607.649	11175.683
607.777	11183.096
607.905	11224.413
608.033	11178.885
608.162	11217.144
608.290	11208.913
608.418	11300.250
608.546	11258.654
608.674	11331.462
608.802	11209.510
608.930	11208.183
609.058	11170.731
609.187	11174.875
609.315	11209.385
609.443	11153.558
609.571	11293.615
609.699	11138.490
609.827	11268.481
609.955	11174.606
610.083	11144.558
610.212	11120.163
610.340	11117.683
610.468	11105.433
610.596	11115.923
610.724	11099.712
610.852	11136.808
610.980	11120.144
611.108	11062.144
611.237	11067.173
611.365	11099.760
611.493	11091.587
611.621	11078.712
611.749	11089.577
611.877	11168.077
612.005	11097.971
612.133	11152.663
612.262	11169.606
612.390	11208.856
612.518	11226.702
612.646	11126.394
612.774	11211.558
612.902	11230.356
613.030	11212.894
613.158	11188.577
613.287	11323.462
613.415	11173.740
613.543	11227.596
613.671	11255.173
613.799	11287.817
613.927	11296.625
614.055	11338.885
614.183	11346.606
614.312	11347.260
614.440	11482.644
614.568	11418.798
614.696	11445.135
614.824	11413.962
614.952	11491.115
615.080	11523.875
615.208	11533.625
615.337	11650.010
615.465	11545.548
615.593	11621.644
615.721	11604.000
615.849	11699.827
615.977	11649.933
616.105	11690.635
616.233	11690.577
616.362	11760.231
616.490	11706.077
616.618	11759.808
616.746	11886.663
616.874	11848.721
617.002	11863.644
617.130	11852.404
617.258	11870.644
617.387	11877.558
617.515	11891.471
617.643	11873.087
617.771	11971.096
617.899	11899.462
618.027	11976.221
618.155	11990.942
618.283	12003.442
618.412	12002.865
618.540	12106.019
618.668	12019.385
618.796	12042.981
618.924	11992.365
619.052	12059.192
619.180	12033.452
619.308	12024.317
619.437	12030.558
619.565	12044.971
619.693	12003.106
619.821	12057.163
619.949	11988.385
620.077	12049.875
620.205	12086.577
620.333	12087.692
620.462	12008.981
620.590	12067.250
620.718	12040.885
620.846	12101.981
620.974	12085.135
621.102	12123.490
621.230	12106.567
621.358	12236.183
621.487	12059.644
621.615	12093.615
621.743	12028.462
621.871	12125.250
621.999	11992.567
622.127	12077.913
622.255	12038.548
622.383	12020.913
622.512	12006.346
622.640	12032.442
622.768	12067.577
622.896	12132.144
623.024	12065.654
623.152	12045.788
623.280	12150.135
623.408	12045.712
623.537	12067.712
623.665	12031.615
623.793	12067.173
623.921	12100.365
624.049	12079.971
624.177	12047.413
624.305	12041.163
624.433	12083.548
624.562	12085.288
624.690	12210.173
624.818	12027.433
624.946	12047.856
625.074	12037.029
625.202	12008.654
625.330	12048.038
625.458	12137.250
625.587	12023.587
625.715	12100.654
625.843	12067.865
625.971	12074.702
626.099	12078.769
626.227	12094.567
626.355	12035.654
626.483	12164.154
626.612	12091.875
626.740	12093.106
626.868	12086.510
626.996	12157.606
627.124	12120.231
627.252	12080.250
627.380	12113.115
627.508	12059.673
627.637	12126.404
627.765	12123.067
627.893	12200.913
628.021	12243.298
628.149	12151.192
628.277	12239.260
628.405	12199.154
628.533	12179.115
628.662	12198.750
628.790	12311.894
628.918	12236.558
629.046	12360.740
629.174	12226.635
629.302	12285.538
629.430	12220.019
629.558	12306.635
629.687	12247.452
629.815	12308.952
629.943	12408.096
630.071	12366.837
630.199	12356.721
630.327	12408.058
630.455	12428.894
630.583	12420.721
630.712	12435.923
630.840	12472.538
630.968	12482.000
631.096	12413.567
631.224	12465.010
631.352	12595.702
631.480	12531.337
631.608	12676.894
631.737	12491.490
631.865	12603.115
631.993	12627.192
632.121	12747.260
632.249	12622.500
632.377	12603.596
632.505	12575.269
632.633	12646.971
632.762	12572.029
632.890	12631.308
633.018	12616.077
633.146	12597.683
633.274	12601.279
633.402	12638.442
633.530	12564.558
633.658	12593.240
633.787	12591.192
633.915	12568.740
634.043	12586.510
634.171	12630.067
634.299	12612.962
634.427	12593.731
634.555	12834.875
634.683	12600.750
634.812	12586.577
634.940	12547.404
635.068	12548.558
635.196	12534.731
635.324	12522.269
635.452	12557.750
635.580	12617.750
635.708	12499.067
635.837	12523.875
635.965	12498.558
636.093	12486.317
636.221	12472.308
636.349	12361.260
636.477	12371.298
636.605	12437.490
636.733	12356.337
636.862	12367.115
636.990	12368.144
637.118	12344.346
637.246	12285.240
637.374	12427.712
637.502	12266.663
637.630	12252.260
637.758	12259.462
637.887	12176.154
638.015	12318.375
638.143	12243.000
638.271	12124.500
638.399	12175.644
638.527	12093.356
638.655	12140.846
638.783	12103.692
638.912	12172.798
639.040	12064.798
639.168	12038.192
639.296	12013.760
639.424	12086.087
639.552	12052.212
639.680	12085.635
639.808	12037.163
639.937	11985.240
640.065	11969.779
640.193	11955.087
640.321	12103.721
640.449	12001.365
640.577	11939.663
640.705	11991.413
640.833	11990.192
640.962	12066.933
641.090	11942.125
641.218	11987.923
641.346	12072.385
641.474	11989.077
641.602	11965.385
641.730	11931.288
641.858	11941.846
641.987	11935.798
642.115	12133.654
642.243	11985.077
642.371	12147.365
642.499	11968.760
642.627	12069.058
642.755	11967.596
642.883	11984.615
643.012	12009.654
643.140	12055.894
643.268	12067.125
643.396	11989.077
643.524	12037.923
643.652	12127.875
643.780	12039.413
643.908	11997.808
644.037	12152.442
644.165	12110.558
644.293	12221.413
644.421	12006.077
644.549	12113.154
644.677	12145.788
644.805	12046.837
644.933	12057.635
645.062	12073.048
645.190	12241.000
645.318	12121.269
645.446	12083.481
645.574	12070.058
645.702	12118.769
645.830	12109.683
645.958	12075.375
646.087	12060.644
646.215	12032.702
646.343	12011.010
646.471	12237.452
646.599	12065.490
646.727	12034.308
646.855	12055.288
646.983	12028.548
647.112	12125.952
647.240	12033.587
647.368	12126.000
647.496	12052.163
647.624	12050.173
647.752	12035.558
647.880	11999.462
648.008	12034.981
648.137	12045.356
648.265	11986.952
648.393	12087.010
648.521	11966.029
648.649	12102.317
648.777	12049.721
648.905	11989.548
649.033	12053.337
649.162	11940.308
649.290	11872.894
649.418	11898.135
649.546	12090.154
649.674	11890.452
649.802	11859.827
649.930	11802.644
650.058	11796.212
650.187	11871.635
650.315	11821.779
650.443	11819.000
650.571	11766.067
650.699	11719.404
650.827	11738.029
650.955	11724.808
651.083	11792.856
651.212	11647.192
651.340	11706.288
651.468	11638.952
651.596	11641.394
651.724	11698.337
651.852	11627.471
651.980	11602.606
652.108	11583.865
652.237	11597.337
652.365	11550.875
652.493	11506.404
652.621	11510.019
652.749	11538.269
652.877	11498.221
653.005	11521.317
653.133	11460.663
653.262	11410.635
653.390	11393.663
653.518	11548.635
653.646	11401.173
653.774	11361.279
653.902	11473.712
654.030	11430.721
654.158	11346.663
654.287	11377.433
654.415	11368.077
654.543	11352.865
654.671	11294.423
654.799	11294.971
654.927	11264.692
655.055	11213.798
655.183	11267.769
655.312	11252.683
655.440	11211.375
655.568	11221.038
655.696	11275.288
655.824	11226.510
655.952	11197.192
656.080	11176.490
656.208	11165.452
656.337	11188.404
656.465	11353.125
656.593	11123.885
656.721	11191.240
656.849	11229.981
656.977	10997.519
657.105	11072.000
657.233	11106.933
657.362	11159.173
657.490	11082.240
657.618	11039.827
657.746	11035.115
657.874	10969.365
658.002	10980.212
658.130	10926.279
658.258	10911.923
658.387	10891.712
658.515	10862.404
658.643	10836.202
658.771	10953.740
658.899	10818.183
659.027	10831.673
659.155	10837.731
659.283	10809.337
659.412	10815.519
659.540	10798.875
659.668	10829.183
659.796	10855.837
659.924	10819.692
660.052	10926.356
660.180	10827.183
660.308	10868.125
660.437	10848.173
660.565	10788.481
660.693	10753.365
660.821	10916.577
660.949	10726.327
661.077	10725.606
661.205	10902.490
661.333	10696.231
661.462	10636.817
661.590	10774.904
661.718	10701.106
661.846	10707.875
661.974	10662.308
662.102	10642.413
662.230	10674.442
662.358	10565.423
662.487	10625.529
662.615	10606.231
662.743	10638.154
662.871	10595.308
662.999	10524.548
663.127	10553.788
663.255	10546.827
663.383	10650.952
663.512	10482.135
663.640	10546.144
663.768	10554.000
663.896	10499.413
664.024	10528.615
664.152	10468.423
664.280	10554.087
664.408	10479.885
664.537	10460.269
664.665	10456.529
664.793	10476.538
664.921	10419.654
665.049	10510.404
665.177	10433.971
665.305	10467.587
665.433	10434.365
665.562	10589.202
665.690	10440.952
665.818	10568.827
665.946	10393.125
666.074	10407.808
666.202	10375.375
666.330	10353.087
666.458	10775.308
666.587	10330.029
666.715	10379.490
666.843	10340.769
666.971	10392.827
667.099	10363.529
667.227	10409.865
667.355	10428.183
667.483	10336.548
667.612	10373.038
667.740	10334.317
667.868	10320.058
667.996	10289.135
668.124	10353.462
668.252	10403.596
668.380	10289.385
668.508	10333.952
668.637	10279.760
668.765	10320.904
668.893	10304.413
669.021	10205.663
669.149	10295.192
669.277	10191.904
669.405	10335.337
669.533	10315.202
669.662	10229.000
669.790	10209.846
669.918	10242.548
670.046	10357.788
670.174	10163.817
670.302	10151.606
670.430	10139.077
670.558	10178.913
670.687	10304.462
670.815	10102.163
670.943	10173.769
671.071	10073.885
671.199	10063.481
671.327	10098.625
671.455	10120.144
671.583	10034.067
671.712	10052.288
671.840	10059.010
671.968	10182.394
672.096	10153.452
672.224	9953.644
672.352	9953.567
672.480	9890.356
672.608	9963.538
672.737	9925.346
672.865	9866.067
672.993	9901.337
673.121	9857.596
673.249	9825.298
673.377	9807.615
673.505	9769.462
673.633	9856.452
673.762	9778.702
673.890	9765.212
674.018	9793.010
674.146	9709.010
674.274	9696.606
674.402	9756.087
674.530	9718.298
674.658	9652.250
674.787	9627.894
674.915	9782.452
675.043	9640.462
675.171	9624.577
675.299	9573.202
675.427	9536.510
675.555	9567.798
675.683	9539.962
675.812	9485.952
675.940	9494.731
676.068	9429.923
676.196	9511.529
676.324	9394.615
676.452	9354.087
676.580	9344.654
676.708	9352.856
676.837	9333.221
676.965	9405.981
677.093	9453.971
677.221	9326.827
677.349	9254.673
677.477	9356.702
677.605	9229.981
677.733	9207.452
677.862	9198.375
677.990	9204.087
678.118	9247.192
678.246	9136.769
678.374	9219.644
678.502	9130.740
678.630	9102.587
678.758	9125.615
678.887	9207.846
679.015	9000.202
679.143	8992.337
679.271	9007.144
679.399	8997.971
679.527	8976.865
679.655	9049.875
679.783	8938.942
679.912	8915.731
680.040	9093.308
680.168	8881.808
680.296	8924.212
680.424	8869.144
680.552	8844.019
680.680	8867.481
680.808	8817.510
680.937	8779.567
681.065	8834.846
681.193	8780.750
681.321	8740.346
681.449	8801.894
681.577	8750.173
681.705	8728.337
681.833	8756.471
681.962	8740.894
682.090	8709.740
682.218	8719.990
682.346	8704.731
682.474	8633.510
682.602	8649.000
682.730	8673.135
682.858	8623.913
682.987	8632.221
683.115	8674.077
683.243	8639.317
683.371	8613.337
683.499	8588.529
683.627	8628.942
683.755	8594.500
683.883	8553.423
684.012	8605.913
684.140	8553.298
684.268	8549.644
684.396	8595.615
684.524	8536.288
684.652	8577.731
684.780	8537.817
684.908	8565.087
685.037	8553.260
685.165	8531.865
685.293	8620.510
685.421	8539.337
685.549	8527.740
685.677	8481.317
685.805	8533.933
685.933	8493.240
686.062	8494.962
686.190	8458.692
686.318	8451.942
686.446	8437.538
686.574	8414.731
686.702	8491.779
686.830	8395.625
686.958	8460.740
687.087	8366.817
687.215	8402.913
687.343	8368.250
687.471	8506.577
687.599	8317.981
687.727	8335.500
687.855	8292.904
687.983	8299.827
688.112	8319.029
688.240	8313.125
688.368	8317.115
688.496	8265.981
688.624	8230.750
688.752	8375.760
688.880	8240.010
689.008	8236.471
689.137	8210.375
689.265	8207.981
689.393	8181.913
689.521	8159.567
689.649	8266.106
689.777	8179.067
689.905	8230.221
690.033	8116.375
690.162	8098.365
690.290	8130.635
690.418	8065.740
690.546	8137.010
690.674	8129.923
690.802	8095.538
690.930	8084.875
691.058	8043.606
691.187	8009.721
691.315	8005.683
691.443	7957.913
691.571	7970.673
691.699	7967.346
691.827	7920.125
691.955	7926.587
692.083	7911.173
692.212	7913.962
692.340	7895.250
692.468	7938.019
692.596	7914.173
692.724	7834.846
692.852	7893.471
692.980	7838.327
693.108	7894.692
693.237	7815.538
693.365	7778.471
693.493	7769.240
693.621	7759.260
693.749	7703.346
693.877	7778.346
694.005	7705.279
694.133	7675.481
694.262	7707.760
694.390	7621.913
694.518	7625.663
694.646	7648.548
694.774	7551.462
694.902	7554.221
695.030	7568.058
695.158	7553.529
695.287	7517.077
695.415	7510.702
695.543	7493.442
695.671	7437.471
695.799	7574.558
695.927	7458.240
696.055	7488.048
696.183	7368.923
696.312	7575.308
696.440	7414.067
696.568	7402.173
696.696	7274.394
696.824	7282.558
696.952	7261.779
697.080	7294.808
697.208	7208.394
697.337	7232.615
697.465	7207.317
697.593	7179.038
697.721	7264.308
697.849	7131.240
697.977	7186.923
698.105	7217.635
698.233	7136.865
698.362	7114.250
698.490	7202.933
698.618	7022.462
698.746	7033.779
698.874	7085.837
699.002	7022.673
699.130	7066.635
699.258	6978.615
699.387	6903.865
699.515	6981.212
699.643	6968.962
699.771	7037.183
699.899	6889.923
700.027	6858.394
700.155	6909.798
700.283	6795.212
700.412	6829.183
700.540	6848.962
700.668	6884.644
700.796	6771.587
700.924	6786.202
701.052	6805.702
701.180	6791.837
701.308	6712.231
701.437	6652.106
701.565	6646.077
701.693	6716.087
701.821	6828.087
701.949	6583.106
702.077	6598.183
702.205	6654.317
702.333	6568.904
702.462	6516.654
702.590	6575.250
702.718	6499.750
702.846	6665.644
702.974	6442.317
703.102	6426.019
703.230	6474.952
703.358	6370.135
703.487	6388.240
703.615	6362.635
703.743	6352.202
703.871	6332.971
703.999	6307.365
704.127	6278.173
704.255	6275.865
704.383	6293.933
704.512	6306.433
704.640	6284.067
704.768	6307.712
704.896	6180.462
705.024	6121.260
705.152	6182.856
705.280	6200.606
705.408	6100.587
705.537	6060.490
705.665	6084.356
705.793	6053.038
705.921	6036.712
706.049	5985.923
706.177	6055.356
706.305	5961.048
706.433	5991.144
706.562	5973.481
706.690	5975.308
706.818	5937.058
706.946	5885.952
707.074	5845.760
707.202	5827.125
707.330	5841.760
707.458	5792.067
707.587	5776.760
707.715	5785.721
707.843	5808.221
707.971	5782.635
708.099	5691.269
708.227	5702.192
708.355	5709.538
708.483	5687.067
708.612	5691.115
708.740	5643.798
708.868	5613.625
708.996	5661.750
709.124	5645.519
709.252	5581.452
709.380	5602.019
709.508	5545.231
709.637	5566.077
709.765	5531.183
709.893	5560.346
710.021	5471.837
710.149	5564.163
710.277	5436.125
710.405	5456.529
710.533	5434.769
710.662	5440.250
710.790	5522.192
710.918	5379.317
711.046	5424.538
711.174	5361.019
711.302	5379.346
711.430	5360.337
711.558	5368.471
711.687	5346.779
711.815	5283.577
711.943	5279.519
712.071	5269.433
712.199	5292.673
712.327	5324.856
712.455	5205.558
712.583	5372.837
712.712	5228.654
712.840	5254.212
712.968	5188.760
713.096	5186.894
713.224	5154.731
713.352	5133.923
713.480	5098.923
713.608	5086.173
713.737	5082.750
713.865	5126.721
713.993	5073.260
714.121	5064.452
714.249	5011.202
714.377	5026.375
714.505	5005.885
714.633	5010.817
714.762	4968.971
714.890	4967.481
715.018	4962.279
715.146	4987.500
715.274	4921.788
715.402	4914.394
715.530	4902.587
715.658	4937.433
715.787	4885.615
715.915	4990.288
716.043	4845.000
716.171	4978.788
716.299	4800.856
716.427	4879.673
716.555	4799.519
716.683	4778.327
716.812	4748.019
716.940	4766.529
717.068	4722.298
717.196	4869.933
717.324	4745.904
717.452	4721.846
717.580	4747.663
717.708	4660.750
717.837	4689.654
717.965	4703.404
718.093	4655.029
718.221	4685.769
718.349	4677.404
718.477	4602.269
718.605	4668.702
718.733	4592.288
718.862	4631.019
718.990	4526.558
719.118	4598.298
719.246	4502.952
719.374	4504.990
719.502	4532.125
719.630	4614.712
719.758	4472.192
719.887	4444.365
720.015	4464.942
720.143	4500.183
720.271	4380.913
720.399	4442.279
720.527	4394.885
720.655	4464.481
720.783	4359.808
720.912	4304.740
721.040	4339.981
721.168	4350.692
721.296	4263.135
721.424	4293.038
721.552	4255.462
721.680	4296.087
721.808	4266.067
721.937	4242.519
722.065	4268.740
722.193	4202.846
722.321	4195.442
722.449	4182.683
