sample16v_at_750.00nm_cut_at_1060.50Y_01.dat
19.06.2023
11:24:03
cut middle at Y: 1060.50
top cursor: 1109 down cursor: 1012 mean of: 97 lines , 2560 datapoints
wavelength(nm)	intensity[arb. units]
585.996	906.959
586.124	858.268
586.252	858.742
586.380	856.907
586.508	864.722
586.637	861.722
586.765	866.784
586.893	869.268
587.021	870.216
587.149	865.907
587.277	867.371
587.405	877.134
587.533	869.742
587.662	872.485
587.790	877.876
587.918	865.680
588.046	874.918
588.174	874.711
588.302	874.495
588.430	873.701
588.558	871.072
588.687	871.258
588.815	882.938
588.943	877.845
589.071	869.072
589.199	880.000
589.327	881.588
589.455	877.485
589.583	878.866
589.712	875.258
589.840	881.454
589.968	871.237
590.096	884.052
590.224	877.639
590.352	873.515
590.480	874.402
590.608	882.268
590.737	868.351
590.865	879.433
590.993	885.856
591.121	880.485
591.249	874.423
591.377	870.722
591.505	866.371
591.633	866.990
591.762	884.196
591.890	887.897
592.018	881.320
592.146	874.186
592.274	879.433
592.402	876.196
592.530	874.711
592.658	884.536
592.787	876.918
592.915	884.392
593.043	885.155
593.171	885.948
593.299	900.701
593.427	885.711
593.555	885.948
593.683	894.371
593.812	890.103
593.940	902.887
594.068	900.144
594.196	918.402
594.324	903.227
594.452	909.258
594.580	907.990
594.708	906.031
594.837	912.351
594.965	915.887
595.093	919.557
595.221	914.948
595.349	922.155
595.477	917.794
595.605	920.320
595.733	933.175
595.862	925.196
595.990	933.474
596.118	932.381
596.246	941.268
596.374	932.784
596.502	948.082
596.630	947.979
596.758	939.196
596.887	943.856
597.015	950.876
597.143	944.330
597.271	949.454
597.399	942.155
597.527	949.010
597.655	946.206
597.783	952.474
597.912	952.907
598.040	954.773
598.168	947.876
598.296	933.876
598.424	941.948
598.552	947.794
598.680	941.546
598.808	940.093
598.937	943.237
599.065	950.299
599.193	938.670
599.321	930.856
599.449	937.948
599.577	941.443
599.705	940.062
599.833	940.598
599.962	940.722
600.090	942.701
600.218	935.876
600.346	941.021
600.474	945.351
600.602	948.082
600.730	949.052
600.858	949.464
600.987	941.309
601.115	940.835
601.243	937.732
601.371	941.825
601.499	948.155
601.627	944.216
601.755	953.165
601.883	950.361
602.012	957.732
602.140	951.186
602.268	959.237
602.396	947.165
602.524	962.052
602.652	967.608
602.780	972.485
602.908	968.031
603.037	977.361
603.165	978.093
603.293	986.402
603.421	986.278
603.549	991.052
603.677	993.701
603.805	984.433
603.933	996.175
604.062	1001.206
604.190	1007.845
604.318	1012.124
604.446	1005.660
604.574	1011.897
604.702	1009.773
604.830	1010.155
604.958	1021.784
605.087	1025.340
605.215	1029.021
605.343	1033.691
605.471	1042.144
605.599	1040.515
605.727	1041.979
605.855	1039.464
605.983	1045.990
606.112	1046.412
606.240	1055.907
606.368	1051.804
606.496	1053.856
606.624	1052.794
606.752	1057.278
606.880	1047.794
607.008	1052.918
607.137	1058.000
607.265	1059.423
607.393	1072.206
607.521	1059.072
607.649	1062.804
607.777	1057.763
607.905	1060.505
608.033	1065.763
608.162	1058.144
608.290	1065.309
608.418	1061.392
608.546	1060.155
608.674	1063.000
608.802	1058.907
608.930	1064.299
609.058	1056.938
609.187	1060.443
609.315	1054.361
609.443	1055.423
609.571	1057.381
609.699	1058.041
609.827	1055.423
609.955	1058.278
610.083	1055.155
610.212	1053.072
610.340	1056.196
610.468	1057.876
610.596	1065.588
610.724	1063.536
610.852	1060.814
610.980	1054.918
611.108	1059.433
611.237	1062.680
611.365	1062.876
611.493	1062.588
611.621	1064.639
611.749	1076.454
611.877	1061.680
612.005	1073.722
612.133	1069.701
612.262	1079.990
612.390	1072.804
612.518	1071.000
612.646	1076.639
612.774	1087.113
612.902	1086.732
613.030	1080.010
613.158	1089.258
613.287	1091.443
613.415	1093.082
613.543	1093.711
613.671	1097.474
613.799	1091.835
613.927	1100.495
614.055	1107.722
614.183	1102.701
614.312	1105.196
614.440	1107.773
614.568	1108.577
614.696	1122.124
614.824	1125.670
614.952	1120.309
615.080	1137.216
615.208	1128.340
615.337	1136.021
615.465	1131.979
615.593	1137.557
615.721	1143.897
615.849	1141.990
615.977	1144.876
616.105	1145.619
616.233	1162.742
616.362	1155.320
616.490	1147.247
616.618	1156.278
616.746	1144.969
616.874	1164.495
617.002	1164.629
617.130	1167.495
617.258	1155.093
617.387	1153.289
617.515	1172.309
617.643	1168.876
617.771	1173.794
617.899	1167.557
618.027	1158.031
618.155	1170.227
618.283	1166.979
618.412	1172.732
618.540	1178.289
618.668	1175.505
618.796	1163.567
618.924	1174.134
619.052	1173.588
619.180	1176.588
619.308	1181.619
619.437	1173.691
619.565	1185.289
619.693	1176.392
619.821	1175.866
619.949	1177.155
620.077	1176.804
620.205	1178.144
620.333	1178.206
620.462	1194.577
620.590	1184.052
620.718	1179.763
620.846	1184.216
620.974	1181.536
621.102	1184.021
621.230	1185.701
621.358	1188.835
621.487	1179.505
621.615	1182.351
621.743	1189.454
621.871	1192.515
621.999	1179.495
622.127	1191.505
622.255	1197.619
622.383	1183.918
622.512	1191.567
622.640	1185.258
622.768	1189.557
622.896	1184.454
623.024	1180.691
623.152	1183.371
623.280	1178.124
623.408	1185.505
623.537	1186.093
623.665	1194.619
623.793	1188.423
623.921	1182.041
624.049	1183.134
624.177	1188.897
624.305	1188.526
624.433	1185.227
624.562	1182.155
624.690	1174.454
624.818	1177.093
624.946	1181.557
625.074	1173.144
625.202	1185.742
625.330	1183.371
625.458	1189.485
625.587	1183.423
625.715	1180.021
625.843	1179.588
625.971	1189.237
626.099	1187.392
626.227	1193.567
626.355	1172.794
626.483	1194.814
626.612	1180.082
626.740	1179.351
626.868	1191.485
626.996	1193.660
627.124	1183.351
627.252	1184.680
627.380	1192.969
627.508	1191.495
627.637	1188.258
627.765	1196.268
627.893	1202.237
628.021	1188.784
628.149	1199.515
628.277	1205.526
628.405	1200.691
628.533	1206.794
628.662	1195.598
628.790	1216.577
628.918	1208.216
629.046	1206.825
629.174	1208.639
629.302	1216.278
629.430	1210.515
629.558	1221.464
629.687	1219.237
629.815	1210.485
629.943	1225.021
630.071	1218.464
630.199	1229.784
630.327	1218.134
630.455	1222.206
630.583	1224.268
630.712	1227.907
630.840	1227.330
630.968	1232.165
631.096	1244.588
631.224	1232.186
631.352	1229.887
631.480	1227.918
631.608	1235.845
631.737	1236.093
631.865	1240.722
631.993	1237.629
632.121	1238.876
632.249	1238.660
632.377	1243.577
632.505	1236.804
632.633	1231.619
632.762	1237.031
632.890	1247.175
633.018	1239.814
633.146	1237.969
633.274	1240.278
633.402	1241.021
633.530	1242.454
633.658	1237.175
633.787	1238.835
633.915	1229.845
634.043	1234.041
634.171	1236.660
634.299	1245.928
634.427	1232.320
634.555	1235.412
634.683	1240.691
634.812	1239.000
634.940	1243.196
635.068	1219.155
635.196	1233.866
635.324	1244.412
635.452	1232.196
635.580	1226.773
635.708	1221.649
635.837	1215.928
635.965	1218.021
636.093	1213.546
636.221	1206.258
636.349	1207.381
636.477	1200.526
636.605	1217.598
636.733	1215.216
636.862	1200.866
636.990	1199.113
637.118	1209.794
637.246	1194.320
637.374	1200.216
637.502	1206.155
637.630	1202.907
637.758	1196.227
637.887	1196.742
638.015	1190.196
638.143	1199.423
638.271	1188.619
638.399	1181.495
638.527	1186.876
638.655	1188.619
638.783	1191.237
638.912	1189.557
639.040	1185.309
639.168	1182.495
639.296	1182.959
639.424	1192.979
639.552	1185.278
639.680	1187.237
639.808	1167.825
639.937	1172.320
640.065	1171.577
640.193	1186.371
640.321	1176.598
640.449	1177.753
640.577	1177.825
640.705	1172.216
640.833	1169.660
640.962	1193.031
641.090	1176.144
641.218	1184.784
641.346	1175.969
641.474	1179.825
641.602	1183.206
641.730	1184.072
641.858	1180.711
641.987	1171.722
642.115	1173.691
642.243	1181.969
642.371	1184.093
642.499	1168.144
642.627	1178.948
642.755	1165.113
642.883	1191.258
643.012	1167.289
643.140	1184.835
643.268	1190.526
643.396	1180.567
643.524	1173.124
643.652	1184.062
643.780	1172.763
643.908	1178.608
644.037	1185.495
644.165	1183.082
644.293	1184.866
644.421	1174.536
644.549	1184.113
644.677	1183.979
644.805	1179.340
644.933	1186.134
645.062	1180.165
645.190	1183.474
645.318	1176.361
645.446	1190.969
645.574	1184.082
645.702	1187.299
645.830	1182.289
645.958	1187.485
646.087	1185.433
646.215	1188.423
646.343	1189.557
646.471	1186.505
646.599	1189.289
646.727	1189.340
646.855	1175.629
646.983	1187.423
647.112	1186.196
647.240	1181.938
647.368	1176.093
647.496	1169.505
647.624	1178.216
647.752	1171.990
647.880	1168.155
648.008	1162.856
648.137	1161.794
648.265	1154.021
648.393	1171.402
648.521	1172.041
648.649	1164.309
648.777	1152.701
648.905	1157.711
649.033	1151.598
649.162	1157.041
649.290	1153.247
649.418	1138.454
649.546	1136.320
649.674	1151.959
649.802	1148.546
649.930	1145.227
650.058	1145.134
650.187	1149.753
650.315	1152.990
650.443	1145.907
650.571	1144.381
650.699	1132.588
650.827	1140.186
650.955	1127.979
651.083	1132.536
651.212	1135.124
651.340	1125.742
651.468	1128.959
651.596	1123.959
651.724	1131.629
651.852	1119.299
651.980	1129.412
652.108	1129.773
652.237	1114.784
652.365	1107.928
652.493	1114.969
652.621	1098.804
652.749	1108.371
652.877	1109.866
653.005	1110.289
653.133	1108.371
653.262	1104.938
653.390	1099.876
653.518	1100.175
653.646	1091.361
653.774	1095.113
653.902	1106.649
654.030	1096.412
654.158	1092.371
654.287	1090.526
654.415	1091.103
654.543	1092.649
654.671	1083.495
654.799	1079.134
654.927	1085.278
655.055	1074.897
655.183	1077.608
655.312	1068.866
655.440	1078.649
655.568	1076.711
655.696	1075.856
655.824	1075.340
655.952	1063.577
656.080	1070.546
656.208	1067.278
656.337	1057.948
656.465	1055.598
656.593	1056.773
656.721	1070.103
656.849	1066.948
656.977	1058.753
657.105	1052.247
657.233	1054.485
657.362	1044.784
657.490	1048.918
657.618	1047.361
657.746	1049.959
657.874	1041.557
658.002	1039.536
658.130	1032.649
658.258	1041.268
658.387	1042.381
658.515	1038.175
658.643	1035.938
658.771	1030.371
658.899	1025.938
659.027	1022.938
659.155	1028.113
659.283	1023.330
659.412	1020.423
659.540	1022.969
659.668	1016.794
659.796	1006.969
659.924	1017.268
660.052	1005.835
660.180	1000.763
660.308	1008.918
660.437	1008.680
660.565	1010.845
660.693	1000.773
660.821	1001.588
660.949	1007.000
661.077	999.515
661.205	995.412
661.333	985.732
661.462	1003.247
661.590	992.361
661.718	985.299
661.846	982.320
661.974	990.196
662.102	986.330
662.230	974.309
662.358	983.814
662.487	977.062
662.615	977.948
662.743	979.268
662.871	980.948
662.999	976.423
663.127	969.680
663.255	981.629
663.383	975.010
663.512	973.351
663.640	973.062
663.768	963.361
663.896	970.938
664.024	973.938
664.152	969.907
664.280	969.959
664.408	956.557
664.537	971.660
664.665	961.392
664.793	962.165
664.921	951.763
665.049	963.773
665.177	957.113
665.305	961.495
665.433	952.753
665.562	961.928
665.690	951.330
665.818	955.763
665.946	950.959
666.074	948.392
666.202	953.959
666.330	950.536
666.458	950.258
666.587	949.660
666.715	957.361
666.843	944.299
666.971	941.608
667.099	946.876
667.227	955.763
667.355	947.113
667.483	947.278
667.612	950.701
667.740	937.856
667.868	935.433
667.996	936.485
668.124	945.392
668.252	937.361
668.380	933.093
668.508	938.062
668.637	928.732
668.765	932.505
668.893	927.443
669.021	933.062
669.149	915.371
669.277	922.938
669.405	912.567
669.533	922.773
669.662	922.897
669.790	915.041
669.918	923.433
670.046	911.082
670.174	917.330
670.302	908.990
670.430	906.433
670.558	907.474
670.687	906.206
670.815	893.041
670.943	904.072
671.071	893.052
671.199	898.557
671.327	893.299
671.455	882.680
671.583	888.206
671.712	887.567
671.840	887.742
671.968	888.340
672.096	879.392
672.224	880.268
672.352	868.773
672.480	875.722
672.608	867.423
672.737	870.010
672.865	857.938
672.993	862.753
673.121	859.670
673.249	865.856
673.377	851.794
673.505	856.598
673.633	845.340
673.762	846.546
673.890	845.155
674.018	848.948
674.146	835.103
674.274	841.670
674.402	834.546
674.530	825.175
674.658	823.629
674.787	822.856
674.915	829.031
675.043	816.186
675.171	828.010
675.299	813.598
675.427	818.856
675.555	818.660
675.683	808.134
675.812	804.763
675.940	797.268
676.068	802.732
676.196	791.526
676.324	795.794
676.452	790.598
676.580	786.835
676.708	787.515
676.837	797.103
676.965	784.216
677.093	787.670
677.221	784.701
677.349	769.495
677.477	778.959
677.605	769.918
677.733	775.320
677.862	769.124
677.990	761.691
678.118	763.144
678.246	764.948
678.374	758.990
678.502	752.278
678.630	754.629
678.758	751.711
678.887	753.371
679.015	755.371
679.143	746.454
679.271	742.165
679.399	743.433
679.527	739.722
679.655	733.495
679.783	733.495
679.912	725.577
680.040	733.103
680.168	740.175
680.296	725.907
680.424	727.309
680.552	723.938
680.680	722.155
680.808	718.021
680.937	721.515
681.065	717.814
681.193	715.639
681.321	706.536
681.449	717.392
681.577	714.113
681.705	706.247
681.833	704.722
681.962	704.711
682.090	708.887
682.218	703.124
682.346	703.289
682.474	700.763
682.602	704.649
682.730	696.701
682.858	694.340
682.987	701.196
683.115	695.423
683.243	694.082
683.371	697.072
683.499	693.660
683.627	693.381
683.755	684.309
683.883	694.969
684.012	688.825
684.140	687.928
684.268	685.351
684.396	687.237
684.524	687.887
684.652	680.629
684.780	691.278
684.908	683.289
685.037	684.918
685.165	679.340
685.293	681.495
685.421	682.691
685.549	676.113
685.677	674.000
685.805	670.794
685.933	676.299
686.062	665.505
686.190	670.474
686.318	662.309
686.446	669.196
686.574	662.021
686.702	665.835
686.830	667.371
686.958	661.608
687.087	660.948
687.215	658.464
687.343	655.258
687.471	660.082
687.599	649.433
687.727	652.784
687.855	646.196
687.983	646.557
688.112	656.887
688.240	643.784
688.368	649.505
688.496	647.515
688.624	648.856
688.752	641.794
688.880	642.979
689.008	633.722
689.137	637.216
689.265	635.639
689.393	632.907
689.521	632.918
689.649	636.938
689.777	637.206
689.905	624.165
690.033	625.598
690.162	623.660
690.290	621.289
690.418	624.237
690.546	616.412
690.674	624.052
690.802	611.495
690.930	609.072
691.058	611.918
691.187	610.247
691.315	608.289
691.443	604.938
691.571	606.216
691.699	598.990
691.827	607.639
691.955	596.505
692.083	604.526
692.212	602.938
692.340	592.536
692.468	598.041
692.596	592.474
692.724	592.835
692.852	583.309
692.980	588.814
693.108	581.907
693.237	585.505
693.365	584.103
693.493	585.742
693.621	579.907
693.749	574.021
693.877	571.340
694.005	568.557
694.133	564.608
694.262	566.969
694.390	562.113
694.518	556.371
694.646	557.113
694.774	568.557
694.902	557.165
695.030	565.103
695.158	555.454
695.287	550.093
695.415	544.649
695.543	546.825
695.671	552.990
695.799	548.031
695.927	541.680
696.055	537.464
696.183	543.526
696.312	544.907
696.440	538.196
696.568	539.155
696.696	528.907
696.824	530.711
696.952	531.825
697.080	527.351
697.208	538.155
697.337	520.485
697.465	528.000
697.593	527.278
697.721	522.680
697.849	520.165
697.977	520.124
698.105	513.155
698.233	527.619
698.362	513.907
698.490	509.711
698.618	509.959
698.746	504.979
698.874	507.021
699.002	504.691
699.130	501.866
699.258	502.515
699.387	500.763
699.515	497.423
699.643	499.330
699.771	498.412
699.899	499.660
700.027	497.186
700.155	494.680
700.283	493.000
700.412	486.000
700.540	489.309
700.668	484.340
700.796	484.093
700.924	479.598
701.052	479.784
701.180	481.371
701.308	484.598
701.437	470.701
701.565	477.835
701.693	471.278
701.821	470.155
701.949	466.938
702.077	471.804
702.205	468.371
702.333	461.959
702.462	458.804
702.590	455.495
702.718	459.010
702.846	456.546
702.974	455.113
703.102	452.031
703.230	450.330
703.358	447.804
703.487	439.351
703.615	441.464
703.743	445.093
703.871	441.804
703.999	438.268
704.127	441.186
704.255	435.990
704.383	436.433
704.512	433.928
704.640	436.134
704.768	423.887
704.896	423.876
705.024	426.526
705.152	427.361
705.280	424.062
705.408	425.897
705.537	419.845
705.665	420.711
705.793	412.165
705.921	413.227
706.049	411.907
706.177	412.443
706.305	414.351
706.433	408.155
706.562	402.639
706.690	402.278
706.818	408.732
706.946	404.371
707.074	402.711
707.202	392.887
707.330	398.134
707.458	400.402
707.587	397.588
707.715	397.773
707.843	388.784
707.971	392.247
708.099	389.794
708.227	389.144
708.355	388.000
708.483	383.557
708.612	385.897
708.740	385.237
708.868	378.155
708.996	382.340
709.124	379.031
709.252	372.918
709.380	381.103
709.508	376.608
709.637	377.299
709.765	375.237
709.893	368.351
710.021	368.608
710.149	368.567
710.277	371.021
710.405	367.082
710.533	366.515
710.662	363.309
710.790	369.969
710.918	364.103
711.046	365.732
711.174	365.897
711.302	361.155
711.430	362.835
711.558	354.227
711.687	356.155
711.815	357.000
711.943	355.577
712.071	355.577
712.199	351.763
712.327	352.567
712.455	349.711
712.583	355.732
712.712	354.247
712.840	347.175
712.968	348.371
713.096	350.608
713.224	344.907
713.352	345.103
713.480	345.103
713.608	341.711
713.737	341.608
713.865	341.124
713.993	338.959
714.121	337.928
714.249	340.557
714.377	339.598
714.505	339.742
714.633	332.495
714.762	337.619
714.890	334.093
715.018	338.649
715.146	332.495
715.274	329.588
715.402	334.186
715.530	329.907
715.658	332.691
715.787	329.216
715.915	325.021
716.043	327.598
716.171	332.557
716.299	326.866
716.427	325.433
716.555	322.845
716.683	322.557
716.812	326.598
716.940	317.887
717.068	320.598
717.196	324.794
717.324	318.340
717.452	317.309
717.580	316.959
717.708	318.856
717.837	311.485
717.965	316.000
718.093	316.928
718.221	308.577
718.349	310.474
718.477	310.577
718.605	311.835
718.733	309.299
718.862	306.340
718.990	307.608
719.118	311.320
719.246	304.990
719.374	306.371
719.502	305.402
719.630	300.928
719.758	301.495
719.887	299.505
720.015	302.567
720.143	299.474
720.271	299.948
720.399	301.010
720.527	295.773
720.655	295.402
720.783	295.196
720.912	290.959
721.040	293.835
721.168	290.237
721.296	286.268
721.424	289.021
721.552	289.165
721.680	286.608
721.808	289.031
721.937	281.320
722.065	287.186
722.193	281.031
722.321	282.330
722.449	277.536
722.577	283.175
722.705	279.701
722.833	277.103
722.962	276.340
723.090	273.959
723.218	274.577
723.346	274.175
723.474	274.897
723.602	273.742
723.730	267.526
723.858	270.165
723.987	269.887
724.115	265.186
724.243	268.567
724.371	267.722
724.499	267.175
724.627	264.299
724.755	263.454
724.883	265.794
725.012	261.289
725.140	262.082
725.268	266.103
725.396	261.433
725.524	257.649
725.652	254.402
725.780	255.144
725.908	254.660
726.037	248.918
726.165	253.103
726.293	247.938
726.421	250.041
726.549	246.670
726.677	247.928
726.805	250.825
726.933	246.732
727.062	246.598
727.190	246.515
727.318	245.907
727.446	242.969
727.574	246.309
727.702	248.175
727.830	243.464
727.958	240.907
728.087	239.753
728.215	234.536
728.343	237.474
728.471	241.330
728.599	239.753
728.727	241.113
728.855	238.320
728.983	238.577
729.112	229.753
729.240	231.742
729.368	230.680
729.496	235.412
729.624	235.433
729.752	235.515
729.880	230.598
730.008	231.144
730.137	228.660
730.265	232.371
730.393	225.072
730.521	228.485
730.649	227.072
730.777	223.557
730.905	224.979
731.033	223.402
731.162	227.186
731.290	225.031
731.418	224.227
731.546	222.052
731.674	221.557
731.802	220.000
731.930	217.948
732.058	219.299
732.187	224.309
732.315	221.835
732.443	220.268
732.571	217.773
732.699	218.526
732.827	216.175
732.955	215.000
733.083	217.082
733.212	214.072
733.340	216.897
733.468	214.093
733.596	211.670
733.724	208.361
733.852	214.351
733.980	208.505
734.108	210.825
734.237	210.546
734.365	209.567
734.493	208.247
734.621	210.598
734.749	211.454
734.877	210.979
735.005	207.361
735.133	206.082
735.262	206.093
735.390	207.134
735.518	205.701
735.646	203.629
735.774	206.361
735.902	201.773
736.030	203.247
736.158	205.309
736.287	204.237
736.415	207.876
736.543	203.959
736.671	203.340
736.799	199.433
736.927	202.021
737.055	201.361
737.183	201.041
737.312	201.361
737.440	198.186
737.568	202.536
737.696	200.237
737.824	197.082
737.952	196.474
738.080	199.216
738.208	200.206
738.337	194.979
738.465	194.639
738.593	190.340
738.721	193.412
738.849	195.000
738.977	195.784
739.105	192.866
739.233	188.753
739.362	193.289
739.490	190.670
739.618	191.340
739.746	191.784
739.874	189.814
740.002	192.134
740.130	186.186
740.258	186.763
740.387	190.268
740.515	185.546
740.643	190.526
740.771	187.052
