sample16h_at_750.00nm_cut_at_1060.50Y_01.dat
19.06.2023
11:23:48
cut middle at Y: 1060.50
top cursor: 1109 down cursor: 1012 mean of: 97 lines , 2560 datapoints
wavelength(nm)	intensity[arb. units]
585.996	808.247
586.124	791.732
586.252	788.660
586.380	789.753
586.508	781.237
586.637	787.876
586.765	788.113
586.893	791.113
587.021	796.969
587.149	794.206
587.277	790.402
587.405	805.835
587.533	801.216
587.662	793.124
587.790	798.299
587.918	797.959
588.046	804.361
588.174	800.186
588.302	798.773
588.430	812.381
588.558	801.536
588.687	806.474
588.815	813.876
588.943	813.866
589.071	805.113
589.199	810.959
589.327	812.113
589.455	813.082
589.583	816.371
589.712	815.773
589.840	818.588
589.968	818.433
590.096	819.175
590.224	819.567
590.352	817.103
590.480	828.412
590.608	821.289
590.737	815.320
590.865	827.907
590.993	830.289
591.121	822.835
591.249	827.052
591.377	830.412
591.505	828.577
591.633	822.124
591.762	838.546
591.890	831.649
592.018	828.835
592.146	841.505
592.274	831.299
592.402	832.907
592.530	840.969
592.658	823.845
592.787	829.175
592.915	837.680
593.043	833.825
593.171	830.485
593.299	839.773
593.427	837.918
593.555	840.351
593.683	832.175
593.812	837.804
593.940	843.381
594.068	842.340
594.196	851.216
594.324	842.464
594.452	856.134
594.580	857.804
594.708	844.423
594.837	851.773
594.965	859.546
595.093	851.969
595.221	856.907
595.349	859.299
595.477	854.567
595.605	859.320
595.733	875.938
595.862	863.155
595.990	869.361
596.118	862.268
596.246	875.175
596.374	865.546
596.502	878.505
596.630	869.897
596.758	881.732
596.887	877.330
597.015	883.918
597.143	873.454
597.271	880.423
597.399	869.381
597.527	886.144
597.655	883.763
597.783	880.887
597.912	877.907
598.040	878.351
598.168	882.320
598.296	880.660
598.424	877.340
598.552	882.928
598.680	871.639
598.808	879.701
598.937	885.732
599.065	885.175
599.193	873.351
599.321	877.062
599.449	887.278
599.577	889.072
599.705	887.876
599.833	890.526
599.962	876.588
600.090	879.474
600.218	883.216
600.346	889.495
600.474	883.629
600.602	889.361
600.730	889.361
600.858	886.918
600.987	884.258
601.115	887.608
601.243	884.031
601.371	892.485
601.499	893.186
601.627	887.588
601.755	896.794
601.883	889.196
602.012	904.041
602.140	894.361
602.268	897.216
602.396	907.536
602.524	897.629
602.652	915.299
602.780	902.464
602.908	917.247
603.037	917.000
603.165	917.361
603.293	926.103
603.421	927.423
603.549	922.990
603.677	924.526
603.805	914.402
603.933	927.093
604.062	928.918
604.190	933.784
604.318	933.784
604.446	935.608
604.574	932.660
604.702	932.330
604.830	937.918
604.958	945.577
605.087	952.577
605.215	948.711
605.343	952.742
605.471	957.237
605.599	957.186
605.727	960.433
605.855	959.567
605.983	952.835
606.112	966.052
606.240	964.732
606.368	967.103
606.496	957.722
606.624	967.876
606.752	959.608
606.880	968.876
607.008	967.660
607.137	967.515
607.265	978.567
607.393	977.546
607.521	976.072
607.649	965.505
607.777	967.588
607.905	960.866
608.033	979.897
608.162	972.021
608.290	975.557
608.418	980.124
608.546	969.423
608.674	983.784
608.802	970.732
608.930	973.515
609.058	971.711
609.187	968.814
609.315	968.629
609.443	969.144
609.571	974.536
609.699	978.856
609.827	975.113
609.955	965.412
610.083	975.021
610.212	963.619
610.340	969.505
610.468	966.258
610.596	976.629
610.724	967.619
610.852	970.660
610.980	972.897
611.108	966.711
611.237	972.021
611.365	963.866
611.493	977.629
611.621	982.010
611.749	985.381
611.877	981.722
612.005	971.062
612.133	971.907
612.262	973.454
612.390	974.454
612.518	984.103
612.646	979.392
612.774	977.423
612.902	989.371
613.030	980.969
613.158	989.340
613.287	996.691
613.415	993.062
613.543	997.093
613.671	991.289
613.799	995.753
613.927	996.474
614.055	995.320
614.183	1002.155
614.312	997.186
614.440	1000.474
614.568	1007.567
614.696	1005.814
614.824	1007.804
614.952	1010.866
615.080	1008.763
615.208	1012.093
615.337	1011.608
615.465	1012.557
615.593	1014.041
615.721	1014.773
615.849	1024.670
615.977	1020.670
616.105	1016.289
616.233	1022.918
616.362	1022.804
616.490	1015.649
616.618	1027.907
616.746	1020.722
616.874	1023.113
617.002	1033.052
617.130	1028.124
617.258	1035.876
617.387	1020.433
617.515	1030.443
617.643	1035.082
617.771	1030.639
617.899	1035.557
618.027	1022.031
618.155	1031.402
618.283	1019.381
618.412	1029.309
618.540	1030.216
618.668	1034.155
618.796	1025.289
618.924	1028.814
619.052	1032.062
619.180	1032.608
619.308	1040.629
619.437	1032.948
619.565	1046.918
619.693	1036.216
619.821	1036.969
619.949	1038.186
620.077	1037.082
620.205	1042.309
620.333	1041.289
620.462	1045.938
620.590	1043.144
620.718	1048.660
620.846	1042.093
620.974	1048.351
621.102	1041.320
621.230	1049.299
621.358	1051.247
621.487	1050.010
621.615	1051.649
621.743	1043.041
621.871	1043.155
621.999	1038.536
622.127	1046.299
622.255	1047.351
622.383	1032.918
622.512	1047.371
622.640	1045.113
622.768	1039.773
622.896	1037.845
623.024	1035.897
623.152	1058.464
623.280	1050.361
623.408	1048.340
623.537	1045.639
623.665	1055.258
623.793	1058.216
623.921	1050.526
624.049	1042.041
624.177	1056.928
624.305	1046.804
624.433	1064.773
624.562	1050.299
624.690	1044.227
624.818	1050.381
624.946	1054.031
625.074	1046.907
625.202	1051.969
625.330	1039.876
625.458	1054.082
625.587	1056.938
625.715	1045.701
625.843	1052.351
625.971	1049.763
626.099	1045.299
626.227	1049.082
626.355	1041.082
626.483	1056.340
626.612	1048.134
626.740	1050.938
626.868	1050.536
626.996	1047.381
627.124	1051.340
627.252	1045.866
627.380	1042.464
627.508	1047.113
627.637	1047.639
627.765	1044.856
627.893	1054.258
628.021	1040.165
628.149	1049.495
628.277	1045.639
628.405	1054.546
628.533	1049.124
628.662	1038.113
628.790	1055.165
628.918	1046.268
629.046	1065.124
629.174	1039.629
629.302	1053.351
629.430	1056.567
629.558	1050.082
629.687	1052.670
629.815	1053.711
629.943	1049.825
630.071	1053.711
630.199	1050.598
630.327	1058.784
630.455	1045.371
630.583	1053.113
630.712	1049.320
630.840	1059.010
630.968	1070.206
631.096	1068.031
631.224	1049.392
631.352	1050.691
631.480	1061.186
631.608	1057.340
631.737	1059.784
631.865	1062.433
631.993	1060.577
632.121	1053.351
632.249	1060.495
632.377	1063.340
632.505	1051.619
632.633	1047.701
632.762	1055.082
632.890	1059.979
633.018	1056.041
633.146	1060.567
633.274	1056.474
633.402	1048.557
633.530	1053.979
633.658	1063.392
633.787	1052.000
633.915	1047.608
634.043	1048.557
634.171	1049.825
634.299	1053.897
634.427	1053.557
634.555	1057.278
634.683	1051.814
634.812	1043.979
634.940	1054.474
635.068	1047.722
635.196	1045.381
635.324	1052.691
635.452	1054.701
635.580	1041.660
635.708	1049.072
635.837	1042.732
635.965	1037.124
636.093	1031.546
636.221	1044.464
636.349	1043.165
636.477	1027.309
636.605	1036.351
636.733	1035.784
636.862	1026.546
636.990	1020.598
637.118	1019.186
637.246	1016.237
637.374	1025.959
637.502	1017.381
637.630	1031.794
637.758	1015.711
637.887	1014.392
638.015	1005.918
638.143	1023.577
638.271	1006.206
638.399	1013.794
638.527	1015.979
638.655	1011.103
638.783	1007.670
638.912	1012.526
639.040	1012.000
639.168	1001.175
639.296	999.722
639.424	1006.412
639.552	1005.021
639.680	1004.052
639.808	997.010
639.937	999.454
640.065	997.134
640.193	999.598
640.321	993.216
640.449	1000.629
640.577	1000.918
640.705	998.887
640.833	997.907
640.962	1000.814
641.090	996.309
641.218	994.835
641.346	992.031
641.474	989.474
641.602	991.237
641.730	998.619
641.858	998.814
641.987	987.979
642.115	989.557
642.243	990.134
642.371	996.155
642.499	992.155
642.627	991.701
642.755	997.289
642.883	1000.928
643.012	992.546
643.140	991.711
643.268	992.546
643.396	991.330
643.524	1000.443
643.652	992.835
643.780	984.711
643.908	991.278
644.037	992.866
644.165	983.526
644.293	990.206
644.421	987.701
644.549	997.928
644.677	988.619
644.805	1001.722
644.933	989.278
645.062	984.268
645.190	985.804
645.318	977.464
645.446	997.629
645.574	998.485
645.702	985.268
645.830	987.804
645.958	996.763
646.087	979.454
646.215	983.289
646.343	989.814
646.471	989.660
646.599	986.515
646.727	978.711
646.855	973.433
646.983	982.010
647.112	982.567
647.240	983.742
647.368	969.732
647.496	975.969
647.624	980.155
647.752	970.577
647.880	974.711
648.008	968.742
648.137	968.289
648.265	969.247
648.393	969.567
648.521	965.660
648.649	966.887
648.777	965.103
648.905	954.062
649.033	951.144
649.162	946.691
649.290	941.423
649.418	946.598
649.546	945.433
649.674	947.247
649.802	948.691
649.930	944.072
650.058	942.856
650.187	949.938
650.315	945.423
650.443	945.773
650.571	948.381
650.699	939.804
650.827	949.196
650.955	939.701
651.083	937.031
651.212	938.041
651.340	941.990
651.468	932.722
651.596	928.918
651.724	930.196
651.852	928.515
651.980	925.392
652.108	926.928
652.237	922.948
652.365	920.598
652.493	926.361
652.621	922.608
652.749	920.763
652.877	922.361
653.005	923.237
653.133	923.155
653.262	923.866
653.390	912.474
653.518	918.320
653.646	913.103
653.774	914.052
653.902	918.082
654.030	912.320
654.158	906.990
654.287	914.155
654.415	906.320
654.543	900.969
654.671	890.918
654.799	899.268
654.927	893.330
655.055	897.485
655.183	893.722
655.312	895.175
655.440	900.124
655.568	888.619
655.696	901.021
655.824	891.412
655.952	886.289
656.080	881.835
656.208	884.856
656.337	879.412
656.465	890.258
656.593	883.670
656.721	882.515
656.849	886.062
656.977	877.196
657.105	885.000
657.233	868.629
657.362	866.495
657.490	866.361
657.618	875.206
657.746	869.825
657.874	866.227
658.002	865.082
658.130	867.237
658.258	867.423
658.387	862.423
658.515	853.979
658.643	854.124
658.771	859.660
658.899	846.835
659.027	859.608
659.155	857.804
659.283	846.773
659.412	848.196
659.540	845.691
659.668	852.825
659.796	843.124
659.924	848.680
660.052	849.031
660.180	835.948
660.308	845.918
660.437	836.412
660.565	841.670
660.693	838.474
660.821	835.691
660.949	840.247
661.077	830.010
661.205	834.948
661.333	825.278
661.462	833.608
661.590	835.515
661.718	830.505
661.846	823.031
661.974	831.103
662.102	827.062
662.230	826.031
662.358	826.753
662.487	816.660
662.615	822.062
662.743	827.258
662.871	819.825
662.999	826.660
663.127	821.082
663.255	812.598
663.383	821.742
663.512	813.206
663.640	818.866
663.768	816.722
663.896	821.969
664.024	820.608
664.152	812.887
664.280	814.897
664.408	809.979
664.537	814.979
664.665	804.887
664.793	804.866
664.921	798.866
665.049	807.773
665.177	804.299
665.305	800.237
665.433	802.784
665.562	798.052
665.690	800.381
665.818	800.010
665.946	796.433
666.074	797.082
666.202	796.072
666.330	791.598
666.458	798.268
666.587	792.062
666.715	795.392
666.843	793.062
666.971	785.701
667.099	796.732
667.227	787.546
667.355	783.691
667.483	793.155
667.612	779.186
667.740	784.010
667.868	785.402
667.996	777.979
668.124	779.330
668.252	784.165
668.380	780.052
668.508	786.639
668.637	774.031
668.765	772.856
668.893	779.629
669.021	772.680
669.149	775.124
669.277	767.577
669.405	766.474
669.533	772.990
669.662	767.423
669.790	756.938
669.918	770.144
670.046	766.155
670.174	764.660
670.302	762.495
670.430	756.773
670.558	756.660
670.687	761.505
670.815	750.773
670.943	752.464
671.071	750.031
671.199	740.392
671.327	746.340
671.455	735.082
671.583	742.577
671.712	737.515
671.840	740.062
671.968	741.093
672.096	741.495
672.224	741.979
672.352	731.907
672.480	732.742
672.608	723.402
672.737	724.887
672.865	726.258
672.993	718.330
673.121	720.000
673.249	716.021
673.377	726.227
673.505	718.835
673.633	716.732
673.762	710.165
673.890	714.804
674.018	708.206
674.146	706.722
674.274	714.722
674.402	699.825
674.530	701.722
674.658	704.443
674.787	689.206
674.915	695.515
675.043	700.979
675.171	688.608
675.299	696.041
675.427	688.392
675.555	694.485
675.683	691.495
675.812	685.907
675.940	678.897
676.068	680.124
676.196	678.237
676.324	680.763
676.452	674.412
676.580	674.412
676.708	665.124
676.837	675.021
676.965	672.361
677.093	675.948
677.221	679.619
677.349	667.691
677.477	673.227
677.605	660.856
677.733	668.732
677.862	660.165
677.990	663.041
678.118	654.639
678.246	652.103
678.374	646.443
678.502	654.000
678.630	649.825
678.758	649.361
678.887	653.247
679.015	652.629
679.143	638.010
679.271	643.495
679.399	640.536
679.527	640.268
679.655	639.052
679.783	637.165
679.912	635.320
680.040	634.928
680.168	631.763
680.296	630.990
680.424	633.454
680.552	627.247
680.680	635.289
680.808	628.247
680.937	626.701
681.065	625.608
681.193	621.371
681.321	616.031
681.449	623.320
681.577	616.082
681.705	611.340
681.833	612.680
681.962	610.814
682.090	621.443
682.218	621.732
682.346	616.299
682.474	616.206
682.602	615.866
682.730	607.361
682.858	604.825
682.987	613.268
683.115	606.979
683.243	607.515
683.371	607.876
683.499	599.990
683.627	605.773
683.755	600.227
683.883	600.515
684.012	598.742
684.140	591.443
684.268	591.340
684.396	594.371
684.524	597.979
684.652	591.969
684.780	600.887
684.908	595.237
685.037	591.784
685.165	586.237
685.293	593.278
685.421	595.206
685.549	586.990
685.677	588.330
685.805	585.495
685.933	598.052
686.062	583.577
686.190	591.887
686.318	582.454
686.446	588.371
686.574	573.247
686.702	589.691
686.830	581.670
686.958	579.371
687.087	579.577
687.215	579.309
687.343	572.701
687.471	575.340
687.599	575.485
687.727	572.268
687.855	576.825
687.983	575.711
688.112	577.804
688.240	570.454
688.368	575.835
688.496	569.041
688.624	567.258
688.752	571.928
688.880	566.021
689.008	566.072
689.137	567.557
689.265	569.258
689.393	557.546
689.521	561.062
689.649	557.536
689.777	559.670
689.905	565.113
690.033	559.804
690.162	557.918
690.290	554.371
690.418	551.691
690.546	554.227
690.674	560.216
690.802	539.289
690.930	548.443
691.058	542.546
691.187	542.041
691.315	545.402
691.443	540.711
691.571	535.639
691.699	538.856
691.827	537.144
691.955	530.392
692.083	536.897
692.212	523.629
692.340	537.928
692.468	530.206
692.596	527.103
692.724	522.433
692.852	529.216
692.980	525.103
693.108	514.670
693.237	522.546
693.365	519.753
693.493	520.495
693.621	519.423
693.749	512.515
693.877	505.825
694.005	509.598
694.133	516.722
694.262	508.804
694.390	510.670
694.518	503.794
694.646	509.577
694.774	505.175
694.902	499.948
695.030	499.773
695.158	498.784
695.287	495.753
695.415	496.093
695.543	498.794
695.671	498.629
695.799	489.392
695.927	490.000
696.055	486.887
696.183	490.041
696.312	488.536
696.440	485.340
696.568	484.701
696.696	488.928
696.824	479.948
696.952	477.804
697.080	481.495
697.208	480.619
697.337	480.845
697.465	475.320
697.593	471.897
697.721	468.371
697.849	472.371
697.977	474.165
698.105	473.052
698.233	470.536
698.362	467.351
698.490	472.784
698.618	468.155
698.746	462.454
698.874	461.814
699.002	465.515
699.130	461.134
699.258	463.619
699.387	457.979
699.515	453.361
699.643	456.804
699.771	454.577
699.899	460.021
700.027	455.082
700.155	454.835
700.283	452.742
700.412	446.412
700.540	445.546
700.668	444.165
700.796	447.485
700.924	441.897
701.052	441.680
701.180	445.330
701.308	439.784
701.437	439.598
701.565	434.330
701.693	434.722
701.821	431.938
701.949	438.598
702.077	434.557
702.205	438.330
702.333	431.412
702.462	431.175
702.590	430.794
702.718	427.330
702.846	427.021
702.974	421.722
703.102	422.515
703.230	422.423
703.358	414.876
703.487	418.649
703.615	413.835
703.743	411.474
703.871	409.856
703.999	411.866
704.127	414.794
704.255	408.278
704.383	404.701
704.512	406.485
704.640	403.856
704.768	401.969
704.896	401.536
705.024	403.247
705.152	398.062
705.280	399.124
705.408	392.773
705.537	396.876
705.665	394.072
705.793	396.268
705.921	389.021
706.049	391.247
706.177	393.557
706.305	393.134
706.433	384.722
706.562	385.577
706.690	384.753
706.818	386.278
706.946	384.144
707.074	380.412
707.202	378.577
707.330	378.227
707.458	381.866
707.587	376.423
707.715	372.093
707.843	378.103
707.971	373.876
708.099	377.876
708.227	370.928
708.355	371.258
708.483	371.052
708.612	365.536
708.740	371.918
708.868	365.268
708.996	363.113
709.124	361.186
709.252	360.454
709.380	364.216
709.508	363.948
709.637	363.753
709.765	356.165
709.893	358.010
710.021	361.124
710.149	359.454
710.277	358.124
710.405	355.093
710.533	353.216
710.662	347.608
710.790	350.773
710.918	351.381
711.046	352.072
711.174	351.433
711.302	348.505
711.430	351.206
711.558	349.485
711.687	347.660
711.815	346.856
711.943	350.021
712.071	348.567
712.199	348.082
712.327	343.567
712.455	341.773
712.583	346.082
712.712	345.299
712.840	342.381
712.968	340.000
713.096	342.907
713.224	337.701
713.352	338.907
713.480	340.454
713.608	337.258
713.737	338.701
713.865	334.979
713.993	333.948
714.121	333.629
714.249	337.206
714.377	331.959
714.505	334.186
714.633	331.340
714.762	330.938
714.890	329.907
715.018	330.990
715.146	327.227
715.274	325.546
715.402	326.515
715.530	330.443
715.658	329.639
715.787	329.691
715.915	322.381
716.043	323.948
716.171	325.052
716.299	320.897
716.427	322.041
716.555	323.639
716.683	326.773
716.812	325.526
716.940	325.763
717.068	321.979
717.196	319.216
717.324	318.464
717.452	316.577
717.580	311.660
717.708	316.979
717.837	313.907
717.965	319.794
718.093	311.433
718.221	308.423
718.349	311.680
718.477	311.918
718.605	307.371
718.733	313.402
718.862	308.485
718.990	310.876
719.118	307.742
719.246	305.907
719.374	306.052
719.502	311.773
719.630	302.918
719.758	308.918
719.887	308.773
720.015	308.021
720.143	301.155
720.271	304.897
720.399	300.505
720.527	300.464
720.655	302.113
720.783	297.969
720.912	296.887
721.040	300.670
721.168	296.371
721.296	292.103
721.424	291.948
721.552	293.309
721.680	287.536
721.808	290.330
721.937	288.464
722.065	292.619
722.193	287.722
722.321	288.072
722.449	286.196
722.577	284.773
722.705	282.938
722.833	284.052
722.962	284.072
723.090	283.278
723.218	280.134
723.346	279.897
723.474	281.722
723.602	278.031
723.730	275.907
723.858	278.423
723.987	276.732
724.115	276.918
724.243	270.753
724.371	273.299
724.499	276.155
724.627	275.381
724.755	270.526
724.883	273.031
725.012	267.454
725.140	269.144
725.268	275.485
725.396	272.021
725.524	266.557
725.652	267.495
725.780	262.907
725.908	263.268
726.037	264.979
726.165	262.722
726.293	258.155
726.421	261.392
726.549	256.814
726.677	258.052
726.805	259.825
726.933	260.103
727.062	255.649
727.190	256.732
727.318	254.990
727.446	257.299
727.574	261.546
727.702	255.763
727.830	258.052
727.958	252.103
728.087	253.031
728.215	249.742
728.343	247.814
728.471	255.536
728.599	248.680
728.727	253.876
728.855	250.433
728.983	250.072
729.112	246.464
729.240	248.010
729.368	246.773
729.496	246.505
729.624	245.340
729.752	249.041
729.880	242.485
730.008	243.969
730.137	238.969
730.265	242.897
730.393	240.536
730.521	239.660
730.649	238.371
730.777	233.278
730.905	234.928
731.033	235.876
731.162	242.866
731.290	234.856
731.418	232.351
731.546	235.186
731.674	232.433
731.802	232.495
731.930	230.474
732.058	230.835
732.187	234.371
732.315	233.732
732.443	236.753
732.571	228.866
732.699	237.711
732.827	227.010
732.955	228.825
733.083	232.052
733.212	226.278
733.340	232.680
733.468	224.629
733.596	230.320
733.724	223.433
733.852	228.412
733.980	222.680
734.108	223.485
734.237	223.052
734.365	219.340
734.493	226.144
734.621	222.969
734.749	224.320
734.877	222.000
735.005	221.866
735.133	218.082
735.262	223.845
735.390	218.495
735.518	219.237
735.646	216.897
735.774	222.412
735.902	220.794
736.030	218.825
736.158	220.351
736.287	215.557
736.415	219.835
736.543	217.052
736.671	216.680
736.799	217.753
736.927	216.979
737.055	214.000
737.183	215.742
737.312	216.196
737.440	214.505
737.568	219.526
737.696	214.093
737.824	217.299
737.952	210.711
738.080	212.722
738.208	209.309
738.337	211.072
738.465	211.082
738.593	207.258
738.721	210.680
738.849	213.567
738.977	211.660
739.105	209.361
739.233	206.938
739.362	206.990
739.490	207.567
739.618	208.474
739.746	209.814
739.874	206.876
740.002	208.144
740.130	201.557
740.258	204.732
740.387	206.361
740.515	207.299
740.643	208.062
740.771	207.464
740.899	208.691
741.027	201.784
741.155	202.247
741.283	204.289
741.412	202.856
741.540	201.588
741.668	205.041
741.796	201.381
741.924	200.495
742.052	199.206
742.180	199.330
742.308	200.216
742.437	199.196
742.565	194.969
742.693	196.021
