sample1v_at_750.00nm_cut_at_1200.50Y_01.dat
19.06.2023
10:48:20
cut middle at Y: 1200.50
top cursor: 1249 down cursor: 1152 mean of: 97 lines , 2560 datapoints
wavelength(nm)	intensity[arb. units]
585.996	1331.969
586.124	1294.887
586.252	1278.454
586.380	1268.845
586.508	1270.402
586.637	1281.206
586.765	1286.567
586.893	1284.773
587.021	1298.196
587.149	1298.103
587.277	1293.866
587.405	1301.546
587.533	1286.371
587.662	1287.351
587.790	1289.433
587.918	1300.155
588.046	1293.567
588.174	1304.711
588.302	1303.175
588.430	1302.887
588.558	1312.814
588.687	1307.670
588.815	1309.000
588.943	1308.454
589.071	1305.433
589.199	1307.763
589.327	1315.660
589.455	1308.608
589.583	1321.206
589.712	1303.082
589.840	1319.062
589.968	1303.753
590.096	1309.526
590.224	1311.309
590.352	1325.175
590.480	1318.918
590.608	1315.433
590.737	1309.711
590.865	1319.454
590.993	1320.835
591.121	1317.990
591.249	1314.804
591.377	1328.000
591.505	1328.701
591.633	1321.412
591.762	1317.969
591.890	1324.732
592.018	1324.000
592.146	1318.567
592.274	1316.010
592.402	1321.072
592.530	1347.825
592.658	1331.021
592.787	1336.082
592.915	1349.402
593.043	1346.701
593.171	1340.289
593.299	1346.155
593.427	1355.505
593.555	1346.660
593.683	1350.371
593.812	1367.216
593.940	1371.258
594.068	1364.835
594.196	1379.371
594.324	1373.464
594.452	1375.010
594.580	1381.000
594.708	1385.144
594.837	1379.876
594.965	1403.639
595.093	1395.536
595.221	1410.629
595.349	1406.866
595.477	1416.515
595.605	1424.619
595.733	1428.371
595.862	1441.464
595.990	1422.866
596.118	1428.887
596.246	1438.928
596.374	1432.907
596.502	1446.227
596.630	1468.804
596.758	1436.082
596.887	1443.701
597.015	1442.907
597.143	1453.124
597.271	1447.299
597.399	1468.763
597.527	1447.175
597.655	1448.835
597.783	1448.196
597.912	1455.443
598.040	1467.804
598.168	1460.495
598.296	1465.155
598.424	1453.134
598.552	1467.052
598.680	1454.845
598.808	1457.804
598.937	1458.103
599.065	1470.639
599.193	1464.464
599.321	1457.866
599.449	1461.887
599.577	1462.691
599.705	1457.361
599.833	1464.825
599.962	1460.381
600.090	1458.247
600.218	1477.402
600.346	1462.619
600.474	1469.505
600.602	1472.309
600.730	1479.330
600.858	1481.845
600.987	1486.784
601.115	1472.381
601.243	1489.577
601.371	1487.835
601.499	1487.165
601.627	1493.330
601.755	1497.649
601.883	1511.629
602.012	1508.567
602.140	1515.113
602.268	1511.804
602.396	1522.082
602.524	1528.062
602.652	1539.062
602.780	1568.309
602.908	1540.753
603.037	1559.722
603.165	1554.000
603.293	1561.320
603.421	1556.196
603.549	1567.041
603.677	1575.371
603.805	1585.536
603.933	1593.979
604.062	1601.938
604.190	1601.959
604.318	1622.567
604.446	1611.495
604.574	1623.691
604.702	1627.629
604.830	1628.691
604.958	1652.526
605.087	1651.660
605.215	1657.722
605.343	1663.773
605.471	1664.918
605.599	1683.691
605.727	1684.052
605.855	1686.041
605.983	1678.897
606.112	1696.825
606.240	1701.124
606.368	1691.804
606.496	1694.732
606.624	1709.289
606.752	1713.660
606.880	1706.649
607.008	1720.598
607.137	1716.773
607.265	1718.711
607.393	1737.082
607.521	1727.845
607.649	1729.577
607.777	1742.258
607.905	1748.938
608.033	1733.948
608.162	1729.804
608.290	1750.814
608.418	1763.103
608.546	1737.856
608.674	1752.216
608.802	1763.371
608.930	1755.897
609.058	1755.897
609.187	1761.959
609.315	1749.794
609.443	1762.526
609.571	1766.052
609.699	1756.814
609.827	1773.722
609.955	1768.577
610.083	1747.103
610.212	1770.392
610.340	1770.289
610.468	1793.196
610.596	1777.062
610.724	1753.041
610.852	1775.969
610.980	1782.928
611.108	1799.495
611.237	1787.361
611.365	1775.918
611.493	1790.124
611.621	1784.000
611.749	1790.258
611.877	1800.639
612.005	1805.887
612.133	1814.134
612.262	1827.474
612.390	1830.072
612.518	1827.062
612.646	1842.247
612.774	1842.433
612.902	1837.351
613.030	1843.711
613.158	1854.371
613.287	1867.000
613.415	1860.526
613.543	1865.629
613.671	1901.979
613.799	1892.289
613.927	1875.330
614.055	1914.268
614.183	1915.536
614.312	1903.082
614.440	1918.144
614.568	1917.691
614.696	1946.124
614.824	1942.072
614.952	1950.093
615.080	1958.165
615.208	1950.443
615.337	1992.402
615.465	1947.206
615.593	1972.351
615.721	1977.804
615.849	2000.031
615.977	1993.031
616.105	1984.979
616.233	2013.979
616.362	2025.794
616.490	2021.804
616.618	2034.784
616.746	2048.866
616.874	2033.062
617.002	2038.732
617.130	2048.856
617.258	2047.041
617.387	2050.598
617.515	2076.082
617.643	2066.485
617.771	2083.113
617.899	2075.825
618.027	2069.784
618.155	2080.794
618.283	2073.031
618.412	2106.247
618.540	2109.495
618.668	2115.948
618.796	2103.474
618.924	2105.701
619.052	2114.454
619.180	2113.948
619.308	2122.577
619.437	2147.979
619.565	2124.258
619.693	2126.948
619.821	2148.474
619.949	2164.660
620.077	2151.495
620.205	2149.402
620.333	2145.165
620.462	2178.155
620.590	2177.062
620.718	2193.124
620.846	2172.639
620.974	2175.979
621.102	2179.938
621.230	2206.021
621.358	2188.814
621.487	2181.196
621.615	2191.577
621.743	2185.041
621.871	2188.309
621.999	2179.588
622.127	2209.588
622.255	2208.505
622.383	2191.031
622.512	2208.732
622.640	2197.144
622.768	2232.206
622.896	2206.299
623.024	2218.763
623.152	2220.474
623.280	2222.278
623.408	2234.062
623.537	2227.722
623.665	2227.196
623.793	2245.557
623.921	2248.835
624.049	2242.938
624.177	2233.928
624.305	2248.206
624.433	2235.381
624.562	2251.505
624.690	2266.247
624.818	2245.959
624.946	2268.124
625.074	2248.784
625.202	2271.763
625.330	2265.021
625.458	2284.742
625.587	2275.361
625.715	2292.938
625.843	2296.526
625.971	2274.093
626.099	2304.577
626.227	2291.351
626.355	2302.969
626.483	2294.959
626.612	2307.155
626.740	2325.505
626.868	2314.732
626.996	2306.938
627.124	2303.742
627.252	2331.639
627.380	2326.093
627.508	2319.330
627.637	2356.825
627.765	2322.062
627.893	2352.835
628.021	2344.588
628.149	2349.000
628.277	2362.918
628.405	2374.990
628.533	2365.196
628.662	2361.742
628.790	2403.134
628.918	2384.639
629.046	2390.546
629.174	2377.691
629.302	2402.433
629.430	2384.825
629.558	2414.536
629.687	2403.309
629.815	2423.443
629.943	2415.351
630.071	2438.299
630.199	2414.773
630.327	2446.010
630.455	2453.918
630.583	2443.619
630.712	2453.351
630.840	2461.959
630.968	2464.124
631.096	2463.732
631.224	2479.268
631.352	2506.526
631.480	2474.577
631.608	2535.732
631.737	2489.052
631.865	2537.093
631.993	2520.732
632.121	2546.753
632.249	2513.237
632.377	2514.165
632.505	2507.082
632.633	2518.320
632.762	2496.144
632.890	2522.485
633.018	2526.825
633.146	2523.392
633.274	2511.196
633.402	2550.031
633.530	2525.485
633.658	2528.711
633.787	2518.309
633.915	2519.567
634.043	2528.165
634.171	2556.392
634.299	2546.309
634.427	2537.474
634.555	2647.722
634.683	2550.794
634.812	2560.237
634.940	2544.938
635.068	2537.979
635.196	2554.990
635.324	2539.619
635.452	2553.134
635.580	2617.505
635.708	2540.856
635.837	2555.299
635.965	2551.485
636.093	2537.474
636.221	2563.320
636.349	2537.196
636.477	2538.701
636.605	2555.598
636.733	2526.979
636.862	2532.433
636.990	2546.268
637.118	2569.990
637.246	2539.289
637.374	2605.021
637.502	2539.175
637.630	2548.351
637.758	2544.608
637.887	2525.577
638.015	2604.041
638.143	2560.330
638.271	2532.206
638.399	2563.526
638.527	2519.268
638.655	2563.691
638.783	2554.072
638.912	2599.485
639.040	2553.361
639.168	2547.412
639.296	2531.206
639.424	2585.649
639.552	2552.876
639.680	2582.608
639.808	2552.526
639.937	2542.918
640.065	2540.959
640.193	2565.052
640.321	2583.794
640.449	2571.289
640.577	2533.546
640.705	2546.144
640.833	2569.175
640.962	2603.155
641.090	2548.887
641.218	2551.928
641.346	2601.598
641.474	2549.278
641.602	2560.948
641.730	2559.289
641.858	2556.680
641.987	2567.031
642.115	2667.485
642.243	2585.227
642.371	2670.041
642.499	2603.454
642.627	2628.639
642.755	2565.155
642.883	2590.072
643.012	2597.124
643.140	2630.619
643.268	2630.546
643.396	2587.567
643.524	2599.938
643.652	2677.546
643.780	2603.557
643.908	2579.485
644.037	2650.948
644.165	2661.433
644.293	2756.629
644.421	2588.608
644.549	2667.443
644.677	2676.144
644.805	2617.031
644.933	2605.670
645.062	2627.216
645.190	2727.186
645.318	2661.443
645.446	2611.979
645.574	2599.186
645.702	2647.753
645.830	2655.897
645.958	2621.711
646.087	2603.361
646.215	2605.216
646.343	2590.907
646.471	2718.629
646.599	2622.536
646.727	2598.876
646.855	2593.660
646.983	2582.784
647.112	2642.866
647.240	2596.041
647.368	2652.680
647.496	2588.557
647.624	2606.969
647.752	2599.237
647.880	2576.381
648.008	2607.505
648.137	2617.247
648.265	2580.742
648.393	2650.330
648.521	2571.320
648.649	2674.041
648.777	2631.103
648.905	2589.619
649.033	2648.144
649.162	2583.010
649.290	2565.794
649.418	2561.825
649.546	2678.619
649.674	2578.784
649.802	2562.392
649.930	2556.021
650.058	2531.711
650.187	2548.381
650.315	2534.701
650.443	2535.680
650.571	2536.557
650.699	2527.206
650.827	2520.526
650.955	2530.577
651.083	2548.928
651.212	2515.959
651.340	2530.588
651.468	2503.969
651.596	2524.649
651.724	2544.052
651.852	2495.835
651.980	2486.907
652.108	2499.381
652.237	2501.381
652.365	2473.711
652.493	2471.134
652.621	2463.186
652.749	2479.526
652.877	2472.454
653.005	2471.000
653.133	2465.536
653.262	2459.113
653.390	2462.031
653.518	2492.979
653.646	2448.299
653.774	2446.804
653.902	2465.196
654.030	2461.536
654.158	2428.186
654.287	2443.742
654.415	2414.454
654.543	2424.876
654.671	2408.433
654.799	2399.897
654.927	2405.959
655.055	2407.835
655.183	2405.423
655.312	2398.340
655.440	2383.928
655.568	2381.268
655.696	2412.711
655.824	2386.938
655.952	2387.753
656.080	2374.680
656.208	2370.278
656.337	2368.814
656.465	2386.835
656.593	2376.103
656.721	2373.072
656.849	2355.763
656.977	2343.433
657.105	2355.330
657.233	2318.753
657.362	2329.299
657.490	2334.289
657.618	2323.536
657.746	2340.454
657.874	2317.732
658.002	2303.433
658.130	2319.299
658.258	2301.990
658.387	2286.711
658.515	2280.392
658.643	2283.845
658.771	2306.454
658.899	2287.485
659.027	2265.804
659.155	2272.670
659.283	2260.773
659.412	2261.845
659.540	2268.619
659.668	2249.392
659.796	2234.928
659.924	2264.144
660.052	2269.175
660.180	2227.402
660.308	2232.835
660.437	2232.454
660.565	2215.928
660.693	2217.093
660.821	2216.680
660.949	2228.227
661.077	2195.711
661.205	2185.856
661.333	2209.732
661.462	2206.845
661.590	2186.309
661.718	2214.835
661.846	2196.423
661.974	2197.825
662.102	2186.175
662.230	2187.619
662.358	2180.546
662.487	2161.722
662.615	2160.505
662.743	2163.773
662.871	2153.381
662.999	2146.557
663.127	2160.072
663.255	2149.948
663.383	2153.505
663.512	2153.144
663.640	2136.361
663.768	2131.979
663.896	2126.804
664.024	2118.258
664.152	2101.010
664.280	2128.361
664.408	2098.433
664.537	2096.392
664.665	2106.155
664.793	2093.691
664.921	2085.619
665.049	2095.773
665.177	2081.784
665.305	2085.876
665.433	2087.773
665.562	2106.340
665.690	2065.237
665.818	2070.216
665.946	2064.505
666.074	2079.103
666.202	2066.124
666.330	2034.113
666.458	2137.103
666.587	2041.010
666.715	2056.485
666.843	2023.814
666.971	2038.320
667.099	2035.041
667.227	2034.629
667.355	2032.103
667.483	2041.361
667.612	2024.804
667.740	1999.247
667.868	1999.474
667.996	1999.351
668.124	2014.474
668.252	2007.959
668.380	1977.124
668.508	1991.887
668.637	1966.887
668.765	1990.464
668.893	1976.825
669.021	1969.598
669.149	1965.835
669.277	1965.928
669.405	1956.309
669.533	1961.918
669.662	1949.278
669.790	1946.124
669.918	1933.680
670.046	1942.237
670.174	1936.608
670.302	1911.082
670.430	1917.495
670.558	1902.557
670.687	1908.031
670.815	1887.371
670.943	1920.134
671.071	1885.340
671.199	1880.608
671.327	1865.918
671.455	1876.825
671.583	1868.351
671.712	1857.773
671.840	1847.485
671.968	1850.309
672.096	1835.433
672.224	1828.608
672.352	1813.567
672.480	1821.206
672.608	1802.021
672.737	1791.804
672.865	1805.031
672.993	1807.124
673.121	1780.144
673.249	1778.454
673.377	1770.691
673.505	1777.784
673.633	1764.505
673.762	1746.299
673.890	1756.835
674.018	1740.392
674.146	1736.670
674.274	1727.928
674.402	1710.227
674.530	1713.515
674.658	1700.876
674.787	1695.567
674.915	1681.536
675.043	1680.928
675.171	1681.278
675.299	1672.340
675.427	1671.485
675.555	1666.897
675.683	1649.340
675.812	1651.258
675.940	1642.567
676.068	1627.000
676.196	1635.196
676.324	1626.876
676.452	1613.371
676.580	1615.072
676.708	1616.113
676.837	1599.990
676.965	1600.588
677.093	1599.072
677.221	1584.918
677.349	1570.546
677.477	1584.495
677.605	1580.423
677.733	1565.722
677.862	1553.536
677.990	1540.979
678.118	1536.722
678.246	1531.649
678.374	1526.485
678.502	1525.918
678.630	1513.103
678.758	1518.361
678.887	1518.835
679.015	1500.268
679.143	1496.093
679.271	1500.227
679.399	1485.701
679.527	1482.948
679.655	1481.010
679.783	1474.825
679.912	1464.258
680.040	1465.928
680.168	1469.443
680.296	1457.144
680.424	1458.680
680.552	1464.381
680.680	1453.639
680.808	1440.175
680.937	1429.247
681.065	1422.588
681.193	1423.031
681.321	1417.041
681.449	1421.577
681.577	1415.887
681.705	1398.340
681.833	1414.660
681.962	1400.990
682.090	1388.381
682.218	1385.258
682.346	1395.485
682.474	1381.103
682.602	1378.763
682.730	1372.907
682.858	1381.897
682.987	1374.711
683.115	1361.763
683.243	1376.928
683.371	1374.247
683.499	1369.454
683.627	1351.969
683.755	1353.320
683.883	1353.072
684.012	1348.526
684.140	1337.814
684.268	1332.454
684.396	1344.021
684.524	1325.887
684.652	1345.722
684.780	1321.969
684.908	1338.649
685.037	1317.010
685.165	1321.495
685.293	1325.505
685.421	1300.876
685.549	1295.649
685.677	1315.866
685.805	1307.423
685.933	1307.773
686.062	1310.474
686.190	1295.619
686.318	1288.124
686.446	1283.268
686.574	1282.948
686.702	1275.577
686.830	1286.351
686.958	1290.113
687.087	1291.041
687.215	1280.557
687.343	1261.546
687.471	1261.268
687.599	1263.680
687.727	1263.711
687.855	1242.567
687.983	1259.722
688.112	1244.825
688.240	1238.371
688.368	1245.804
688.496	1239.536
688.624	1243.814
688.752	1233.464
688.880	1221.897
689.008	1223.959
689.137	1220.021
689.265	1210.814
689.393	1205.247
689.521	1205.557
689.649	1219.742
689.777	1192.680
689.905	1201.670
690.033	1199.021
690.162	1185.907
690.290	1183.237
690.418	1182.000
690.546	1178.423
690.674	1184.907
690.802	1171.433
690.930	1162.021
691.058	1156.598
691.187	1155.557
691.315	1154.763
691.443	1151.124
691.571	1155.907
691.699	1139.557
691.827	1154.330
691.955	1138.454
692.083	1138.299
692.212	1119.361
692.340	1137.021
692.468	1124.258
692.596	1126.907
692.724	1121.474
692.852	1112.505
692.980	1113.794
693.108	1104.402
693.237	1092.464
693.365	1086.278
693.493	1101.742
693.621	1090.412
693.749	1083.495
693.877	1077.577
694.005	1067.278
694.133	1067.918
694.262	1054.701
694.390	1067.856
694.518	1063.423
694.646	1044.402
694.774	1045.175
694.902	1043.196
695.030	1034.639
695.158	1044.412
695.287	1024.278
695.415	1039.144
695.543	1018.289
695.671	1025.113
695.799	1024.680
695.927	1016.773
696.055	1008.144
696.183	1011.021
696.312	1005.969
696.440	996.732
696.568	1004.103
696.696	975.763
696.824	990.907
696.952	988.464
697.080	979.866
697.208	972.206
697.337	988.825
697.465	969.753
697.593	970.330
697.721	964.928
697.849	960.227
697.977	969.289
698.105	955.010
698.233	957.216
698.362	943.753
698.490	953.928
698.618	943.835
698.746	933.062
698.874	921.660
699.002	930.340
699.130	931.887
699.258	927.485
699.387	929.649
699.515	909.526
699.643	919.701
699.771	904.268
699.899	905.330
700.027	899.619
700.155	898.619
700.283	896.031
700.412	886.206
700.540	898.505
700.668	884.515
700.796	878.371
700.924	876.227
701.052	868.711
701.180	868.515
701.308	860.577
701.437	862.175
701.565	869.495
701.693	846.979
701.821	848.546
701.949	845.237
702.077	849.247
702.205	839.876
702.333	847.320
702.462	837.567
702.590	826.639
702.718	827.722
702.846	819.794
702.974	823.124
703.102	817.773
703.230	811.629
703.358	801.371
703.487	801.381
703.615	803.052
703.743	790.196
703.871	787.402
703.999	799.454
704.127	787.979
704.255	784.794
704.383	775.330
704.512	776.351
704.640	762.000
704.768	754.103
704.896	763.845
705.024	758.835
705.152	760.289
705.280	763.041
705.408	760.320
705.537	754.969
705.665	748.856
705.793	737.309
705.921	748.227
706.049	740.021
706.177	727.567
706.305	737.794
706.433	736.175
706.562	730.320
706.690	727.639
706.818	723.794
706.946	719.289
707.074	723.825
707.202	712.423
707.330	702.000
707.458	707.299
707.587	703.464
707.715	697.289
707.843	697.722
707.971	694.814
708.099	700.474
708.227	694.835
708.355	683.948
708.483	688.072
708.612	680.402
708.740	685.732
708.868	671.804
708.996	675.732
709.124	673.784
709.252	672.041
709.380	670.680
709.508	668.031
709.637	659.062
709.765	657.402
709.893	661.155
710.021	658.093
710.149	651.423
710.277	645.804
710.405	650.309
710.533	644.928
710.662	643.773
710.790	642.701
710.918	637.227
711.046	642.701
711.174	645.052
711.302	650.598
711.430	637.258
711.558	639.216
711.687	626.247
711.815	623.938
711.943	624.866
712.071	627.505
712.199	624.639
712.327	621.454
712.455	622.649
712.583	623.773
712.712	616.381
712.840	616.907
712.968	610.598
713.096	606.856
713.224	611.835
713.352	606.134
713.480	603.433
713.608	603.505
713.737	599.856
713.865	591.577
713.993	609.433
714.121	596.206
714.249	602.619
714.377	595.361
714.505	588.299
714.633	592.784
714.762	590.887
714.890	580.979
715.018	581.711
715.146	582.320
715.274	582.216
715.402	579.113
715.530	576.299
715.658	575.608
715.787	567.515
715.915	570.495
716.043	572.072
716.171	563.392
716.299	559.402
716.427	566.113
716.555	557.918
716.683	556.907
716.812	556.412
716.940	562.464
717.068	554.361
717.196	556.124
717.324	554.052
717.452	550.340
717.580	555.825
717.708	550.701
717.837	545.619
717.965	542.897
718.093	549.485
718.221	539.876
718.349	537.691
718.477	541.577
718.605	534.546
718.733	533.103
718.862	536.464
718.990	524.773
719.118	524.845
719.246	528.753
719.374	524.608
719.502	522.144
719.630	525.268
719.758	520.227
719.887	515.186
720.015	507.907
720.143	510.237
720.271	514.691
720.399	504.732
720.527	500.938
720.655	499.299
720.783	499.371
720.912	495.392
721.040	494.268
721.168	506.237
721.296	486.732
721.424	493.866
721.552	488.814
721.680	488.247
721.808	488.897
721.937	484.804
722.065	482.052
722.193	487.062
722.321	484.536
722.449	487.412
722.577	474.773
722.705	478.680
722.833	477.577
722.962	480.165
723.090	469.412
723.218	465.268
723.346	468.608
723.474	469.361
723.602	467.165
723.730	455.732
723.858	460.711
723.987	461.082
724.115	460.351
724.243	458.351
724.371	456.216
724.499	456.330
724.627	448.278
724.755	451.639
724.883	450.052
725.012	446.206
725.140	443.258
725.268	446.660
725.396	439.711
725.524	442.443
725.652	435.381
725.780	431.361
725.908	433.299
726.037	430.691
726.165	433.320
726.293	427.969
726.421	431.454
726.549	428.268
726.677	427.082
726.805	419.113
726.933	418.845
727.062	418.515
727.190	424.258
727.318	417.258
727.446	416.876
727.574	413.722
727.702	408.794
727.830	418.845
727.958	410.670
728.087	414.113
728.215	409.948
728.343	410.619
728.471	403.206
728.599	404.691
728.727	405.639
728.855	401.835
728.983	399.887
729.112	400.938
729.240	403.691
729.368	398.155
729.496	396.216
729.624	391.876
729.752	388.113
729.880	393.959
730.008	388.433
730.137	386.577
730.265	389.711
730.393	384.505
730.521	389.103
730.649	384.082
730.777	383.216
730.905	386.186
731.033	372.639
731.162	383.711
731.290	380.082
731.418	381.639
731.546	371.948
731.674	376.629
731.802	373.361
731.930	376.165
732.058	364.546
732.187	366.567
732.315	368.907
732.443	372.454
732.571	367.866
732.699	369.454
732.827	367.918
732.955	366.845
733.083	361.598
733.212	368.670
733.340	368.010
733.468	362.402
733.596	364.423
733.724	357.608
733.852	358.990
733.980	352.619
734.108	355.794
734.237	352.031
734.365	356.918
734.493	351.794
734.621	347.134
734.749	357.031
734.877	352.567
735.005	346.876
735.133	347.237
735.262	347.093
735.390	341.289
735.518	342.268
735.646	341.845
735.774	346.515
735.902	343.948
736.030	343.258
736.158	341.629
736.287	339.289
736.415	342.237
736.543	335.206
736.671	339.021
736.799	337.206
736.927	332.866
737.055	336.918
737.183	335.567
737.312	330.392
737.440	332.433
