70_120_wo_Pol_at_750.00nm_cut_at_1179.00Y_01.dat
03.07.2023
11:10:57
cut middle at Y: 1179.00
top cursor: 1231 down cursor: 1127 mean of: 104 lines , 2560 datapoints
wavelength(nm)	intensity[arb. units]
585.996	27021.231
586.124	26530.673
586.252	26564.942
586.380	26675.077
586.508	26783.779
586.637	26877.240
586.765	26935.231
586.893	27026.019
587.021	27073.769
587.149	27110.173
587.277	27214.000
587.405	27239.894
587.533	27332.808
587.662	27388.712
587.790	27340.144
587.918	27339.500
588.046	27292.490
588.174	27418.240
588.302	27423.183
588.430	27428.933
588.558	27317.962
588.687	27441.163
588.815	27517.173
588.943	27347.923
589.071	27473.587
589.199	27484.625
589.327	27417.538
589.455	27452.500
589.583	27422.192
589.712	27379.365
589.840	27386.981
589.968	27351.721
590.096	27492.356
590.224	27468.760
590.352	27541.875
590.480	27406.788
590.608	27378.529
590.737	27437.952
590.865	27468.404
590.993	27332.606
591.121	27385.183
591.249	27397.000
591.377	27370.327
591.505	27415.308
591.633	27370.587
591.762	27401.692
591.890	27445.106
592.018	27516.673
592.146	27456.404
592.274	27414.500
592.402	27392.087
592.530	27613.038
592.658	27505.894
592.787	27586.394
592.915	27630.154
593.043	27504.221
593.171	27677.163
593.299	27641.365
593.427	27634.587
593.555	27692.827
593.683	27676.606
593.812	27756.087
593.940	27782.625
594.068	27803.625
594.196	27849.471
594.324	27940.452
594.452	28151.875
594.580	28062.548
594.708	28150.587
594.837	28167.923
594.965	28274.933
595.093	28311.481
595.221	28460.577
595.349	28426.817
595.477	28465.779
595.605	28602.356
595.733	28568.740
595.862	28570.692
595.990	28599.942
596.118	28712.183
596.246	28816.404
596.374	28851.962
596.502	28881.010
596.630	28879.010
596.758	28893.702
596.887	28970.010
597.015	29034.346
597.143	28985.058
597.271	28966.933
597.399	29146.471
597.527	29054.644
597.655	29083.154
597.783	29144.038
597.912	29075.663
598.040	29223.135
598.168	29116.577
598.296	29076.106
598.424	29248.269
598.552	29067.875
598.680	29096.404
598.808	29231.442
598.937	29166.010
599.065	29102.635
599.193	29126.769
599.321	29127.904
599.449	29052.288
599.577	29054.596
599.705	28972.212
599.833	28980.375
599.962	28902.413
600.090	29002.779
600.218	28930.712
600.346	28970.231
600.474	28890.798
600.602	28912.288
600.730	28970.317
600.858	29026.096
600.987	29014.510
601.115	28950.221
601.243	28968.433
601.371	29052.096
601.499	29047.942
601.627	29161.885
601.755	29096.702
601.883	29199.481
602.012	29006.702
602.140	29199.769
602.268	29183.904
602.396	29348.808
602.524	29369.538
602.652	29477.202
602.780	29489.048
602.908	29603.346
603.037	29690.567
603.165	29770.288
603.293	29799.788
603.421	29877.385
603.549	29948.423
603.677	29990.337
603.805	30111.856
603.933	30138.846
604.062	30338.712
604.190	30476.904
604.318	30497.433
604.446	30566.433
604.574	30676.202
604.702	30698.981
604.830	30768.837
604.958	30877.317
605.087	30952.135
605.215	31083.885
605.343	31250.567
605.471	31294.125
605.599	31332.567
605.727	31479.356
605.855	31573.125
605.983	31633.779
606.112	31693.827
606.240	31724.558
606.368	31833.240
606.496	31835.712
606.624	31912.615
606.752	31966.058
606.880	32027.846
607.008	32087.538
607.137	32110.788
607.265	32230.269
607.393	32226.865
607.521	32299.192
607.649	32270.625
607.777	32287.404
607.905	32268.990
608.033	32245.769
608.162	32270.452
608.290	32244.740
608.418	32442.808
608.546	32462.433
608.674	32404.365
608.802	32325.365
608.930	32390.904
609.058	32293.635
609.187	32332.038
609.315	32302.317
609.443	32282.327
609.571	32337.692
609.699	32214.875
609.827	32303.269
609.955	32237.442
610.083	32177.077
610.212	32157.971
610.340	32187.548
610.468	32162.635
610.596	32107.163
610.724	32096.875
610.852	32167.885
610.980	32196.760
611.108	32179.346
611.237	32157.452
611.365	32178.644
611.493	32105.596
611.621	32117.500
611.749	32156.644
611.877	32235.644
612.005	32251.548
612.133	32308.404
612.262	32261.010
612.390	32383.769
612.518	32394.731
612.646	32462.413
612.774	32513.269
612.902	32553.115
613.030	32564.356
613.158	32545.904
613.287	32690.856
613.415	32630.529
613.543	32750.981
613.671	32793.808
613.799	32843.231
613.927	32977.817
614.055	33052.154
614.183	33026.452
614.312	33121.933
614.440	33281.365
614.568	33224.750
614.696	33375.981
614.824	33422.952
614.952	33494.837
615.080	33571.029
615.208	33712.798
615.337	33805.154
615.465	33808.769
615.593	33932.837
615.721	33936.462
615.849	34044.683
615.977	34100.817
616.105	34159.577
616.233	34251.913
616.362	34365.317
616.490	34418.760
616.618	34525.250
616.746	34668.788
616.874	34688.442
617.002	34746.615
617.130	34824.433
617.258	34840.212
617.387	34913.894
617.515	35003.962
617.643	35002.385
617.771	35110.231
617.899	35104.269
618.027	35122.875
618.155	35160.587
618.283	35250.587
618.412	35332.212
618.540	35423.817
618.668	35410.923
618.796	35499.827
618.924	35450.788
619.052	35565.625
619.180	35438.327
619.308	35459.567
619.437	35518.163
619.565	35510.587
619.693	35492.269
619.821	35593.394
619.949	35595.337
620.077	35659.048
620.205	35638.221
620.333	35661.317
620.462	35638.423
620.590	35704.308
620.718	35736.413
620.846	35790.731
620.974	35755.692
621.102	35784.135
621.230	35726.942
621.358	35865.183
621.487	35764.365
621.615	35793.769
621.743	35712.298
621.871	35787.837
621.999	35761.625
622.127	35677.644
622.255	35759.529
622.383	35691.846
622.512	35803.038
622.640	35765.337
622.768	35858.596
622.896	35822.038
623.024	35853.731
623.152	35817.144
623.280	35907.913
623.408	35909.058
623.537	35925.029
623.665	35872.971
623.793	35894.106
623.921	35915.077
624.049	35885.029
624.177	35937.125
624.305	35936.385
624.433	35916.779
624.562	36009.577
624.690	36053.712
624.818	35860.663
624.946	35889.740
625.074	35895.471
625.202	35951.981
625.330	35954.106
625.458	36099.500
625.587	36014.865
625.715	36121.529
625.843	36028.673
625.971	36125.760
626.099	36093.183
626.227	36165.404
626.355	36110.000
626.483	36227.933
626.612	36150.615
626.740	36274.577
626.868	36228.904
626.996	36371.913
627.124	36274.163
627.252	36318.712
627.380	36353.808
627.508	36375.769
627.637	36433.394
627.765	36499.567
627.893	36540.471
628.021	36623.067
628.149	36494.981
628.277	36687.442
628.405	36619.433
628.533	36671.442
628.662	36760.221
628.790	36903.990
628.918	36869.875
629.046	37079.779
629.174	36932.087
629.302	37018.654
629.430	37063.250
629.558	37097.702
629.687	37159.885
629.815	37258.442
629.943	37449.087
630.071	37419.029
630.199	37502.615
630.327	37528.288
630.455	37565.115
630.583	37652.413
630.712	37656.731
630.840	37774.048
630.968	37833.721
631.096	37872.260
631.224	37891.202
631.352	38048.971
631.480	38077.077
631.608	38280.865
631.737	38185.654
631.865	38300.327
631.993	38338.654
632.121	38456.625
632.249	38440.510
632.377	38377.500
632.505	38506.029
632.633	38607.394
632.762	38529.827
632.890	38653.827
633.018	38568.894
633.146	38583.183
633.274	38645.135
633.402	38639.990
633.530	38655.577
633.658	38651.058
633.787	38661.038
633.915	38734.981
634.043	38785.212
634.171	38789.269
634.299	38781.115
634.427	38764.288
634.555	38966.058
634.683	38813.442
634.812	38775.173
634.940	38719.019
635.068	38714.875
635.196	38712.308
635.324	38704.702
635.452	38641.144
635.580	38762.577
635.708	38670.548
635.837	38656.933
635.965	38618.452
636.093	38641.933
636.221	38484.625
636.349	38434.442
636.477	38410.452
636.605	38412.740
636.733	38337.923
636.862	38356.183
636.990	38304.288
637.118	38206.779
637.246	38198.769
637.374	38244.433
637.502	38085.308
637.630	38013.635
637.758	37991.462
637.887	37913.894
638.015	37988.577
638.143	37964.058
638.271	37809.510
638.399	37857.567
638.527	37779.173
638.655	37730.202
638.783	37675.365
638.912	37711.846
639.040	37578.433
639.168	37507.212
639.296	37511.865
639.424	37569.087
639.552	37434.683
639.680	37481.173
639.808	37378.721
639.937	37338.173
640.065	37412.827
640.193	37435.058
640.321	37467.856
640.449	37496.856
640.577	37384.510
640.705	37442.798
640.833	37421.577
640.962	37408.327
641.090	37344.087
641.218	37372.183
641.346	37458.817
641.474	37466.885
641.602	37402.462
641.730	37362.885
641.858	37439.904
641.987	37418.692
642.115	37586.769
642.243	37502.635
642.371	37639.644
642.499	37460.346
642.627	37583.606
642.755	37545.490
642.883	37563.779
643.012	37538.183
643.140	37641.423
643.268	37610.010
643.396	37541.625
643.524	37608.596
643.652	37677.933
643.780	37654.760
643.908	37716.144
644.037	37776.423
644.165	37757.240
644.293	37828.644
644.421	37692.442
644.549	37738.606
644.677	37748.433
644.805	37730.346
644.933	37695.596
645.062	37853.394
645.190	37943.635
645.318	37870.721
645.446	37774.221
645.574	37845.990
645.702	37826.404
645.830	37859.077
645.958	37781.817
646.087	37777.654
646.215	37743.500
646.343	37762.058
646.471	37967.144
646.599	37737.952
646.727	37770.471
646.855	37750.519
646.983	37674.269
647.112	37684.404
647.240	37677.385
647.368	37716.288
647.496	37700.933
647.624	37620.990
647.752	37671.933
647.880	37580.000
648.008	37611.394
648.137	37584.221
648.265	37582.260
648.393	37570.375
648.521	37476.846
648.649	37565.087
648.777	37464.471
648.905	37352.923
649.033	37399.337
649.162	37239.308
649.290	37136.087
649.418	37147.808
649.546	37228.740
649.674	37118.202
649.802	37002.952
649.930	36944.615
650.058	36880.663
650.187	36980.808
650.315	36849.356
650.443	36781.942
650.571	36627.817
650.699	36659.846
650.827	36582.567
650.955	36519.731
651.083	36524.990
651.212	36409.683
651.340	36371.827
651.468	36277.548
651.596	36278.663
651.724	36236.692
651.852	36123.519
651.980	36131.750
652.108	35964.673
652.237	36026.587
652.365	35890.692
652.493	35869.846
652.621	35847.587
652.749	35791.500
652.877	35684.962
653.005	35712.423
653.133	35593.067
653.262	35527.548
653.390	35449.298
653.518	35495.077
653.646	35357.375
653.774	35310.663
653.902	35319.837
654.030	35261.548
654.158	35182.250
654.287	35135.010
654.415	35052.471
654.543	35072.163
654.671	34999.827
654.799	34908.971
654.927	34851.981
655.055	34780.894
655.183	34745.596
655.312	34721.192
655.440	34653.933
655.568	34594.721
655.696	34566.587
655.824	34454.846
655.952	34471.010
656.080	34275.663
656.208	34355.721
656.337	34314.125
656.465	34417.808
656.593	34203.529
656.721	34164.587
656.849	34198.365
656.977	33902.260
657.105	33926.433
657.233	33911.731
657.362	33922.308
657.490	33870.558
657.618	33774.760
657.746	33700.971
657.874	33515.029
658.002	33386.269
658.130	33290.798
658.258	33294.663
658.387	33197.558
658.515	33178.846
658.643	33069.010
658.771	33117.548
658.899	32966.885
659.027	32970.452
659.155	32868.327
659.283	32789.615
659.412	32747.096
659.540	32669.683
659.668	32646.250
659.796	32771.462
659.924	32718.077
660.052	32804.740
660.180	32640.096
660.308	32677.452
660.437	32584.212
660.565	32422.067
660.693	32275.413
660.821	32433.990
660.949	32182.375
661.077	32148.702
661.205	32327.260
661.333	32077.231
661.462	32015.279
661.590	32035.279
661.718	31841.038
661.846	31900.019
661.974	31802.885
662.102	31699.404
662.230	31641.240
662.358	31479.471
662.487	31513.558
662.615	31525.837
662.743	31430.779
662.871	31416.885
662.999	31311.231
663.127	31172.779
663.255	31150.462
663.383	31302.337
663.512	31038.106
663.640	31079.673
663.768	30975.058
663.896	30910.577
664.024	30910.567
664.152	30845.837
664.280	30868.250
664.408	30718.712
664.537	30665.231
664.665	30685.644
664.793	30571.125
664.921	30513.587
665.049	30521.327
665.177	30476.317
665.305	30432.462
665.433	30392.548
665.562	30459.510
665.690	30281.452
665.818	30413.471
665.946	30145.837
666.074	30100.365
666.202	30041.317
666.330	30058.240
666.458	30185.029
666.587	29929.721
666.715	29870.067
666.843	29835.981
666.971	29787.663
667.099	29749.279
667.227	29770.221
667.355	29736.740
667.483	29599.615
667.612	29638.058
667.740	29516.144
667.868	29476.038
667.996	29459.644
668.124	29447.231
668.252	29467.865
668.380	29261.375
668.508	29262.865
668.637	29155.798
668.765	29125.154
668.893	29026.750
669.021	29026.202
669.149	29011.500
669.277	28878.933
669.405	28978.740
669.533	28863.712
669.662	28734.452
669.790	28694.154
669.918	28646.135
670.046	28759.981
670.174	28424.269
670.302	28387.933
670.430	28264.625
670.558	28337.385
670.687	28383.510
670.815	28152.058
670.943	28160.250
671.071	28016.971
671.199	27887.558
671.327	27884.827
671.455	27844.221
671.583	27790.538
671.712	27728.923
671.840	27714.385
671.968	27707.010
672.096	27659.106
672.224	27434.529
672.352	27379.317
672.480	27323.654
672.608	27242.115
672.737	27081.058
672.865	27057.875
672.993	26966.442
673.121	26885.442
673.249	26799.308
673.377	26729.673
673.505	26642.740
673.633	26670.981
673.762	26498.942
673.890	26513.337
674.018	26447.365
674.146	26328.875
674.274	26294.587
674.402	26222.144
674.530	26098.875
674.658	26019.481
674.787	25923.596
674.915	25948.490
675.043	25799.596
675.171	25707.471
675.299	25619.567
675.427	25511.702
675.555	25420.471
675.683	25398.712
675.812	25293.106
675.940	25243.558
676.068	25068.712
676.196	25160.327
676.324	24993.635
676.452	24888.731
676.580	24792.163
676.708	24729.875
676.837	24650.125
676.965	24632.952
677.093	24658.106
677.221	24440.750
677.349	24317.798
677.477	24305.654
677.605	24153.067
677.733	24075.413
677.862	24009.548
677.990	24003.673
678.118	23951.260
678.246	23850.433
678.374	23822.038
678.502	23659.673
678.630	23587.548
678.758	23526.596
678.887	23610.356
679.015	23311.538
679.143	23286.615
679.271	23210.856
679.399	23139.981
679.527	23129.029
679.655	23100.798
679.783	22940.096
679.912	22880.538
680.040	22958.904
680.168	22764.250
680.296	22704.192
680.424	22643.067
680.552	22572.135
680.680	22505.529
680.808	22434.577
680.937	22354.163
681.065	22335.923
681.193	22209.202
681.321	22114.510
681.449	22173.808
681.577	22076.260
681.705	22049.779
681.833	21961.548
681.962	21899.558
682.090	21834.183
682.218	21777.538
682.346	21783.192
682.474	21626.654
682.602	21602.500
682.730	21581.029
682.858	21451.154
682.987	21451.913
683.115	21413.433
683.243	21315.077
683.371	21265.942
683.499	21196.356
683.627	21201.663
683.755	21123.183
683.883	21133.269
684.012	21056.558
684.140	20949.404
684.268	20940.548
684.396	20979.029
684.524	20897.721
684.652	20842.529
684.780	20795.856
684.908	20762.135
685.037	20748.404
685.165	20662.231
685.293	20624.625
685.421	20602.000
685.549	20512.712
685.677	20425.885
685.805	20394.808
685.933	20284.856
686.062	20254.413
686.190	20237.538
686.318	20176.250
686.446	20089.865
686.574	20071.115
686.702	20089.538
686.830	19980.798
686.958	19978.202
687.087	19884.221
687.215	19874.442
687.343	19784.163
687.471	19926.096
687.599	19614.875
687.727	19644.404
687.855	19562.260
687.983	19468.731
688.112	19519.846
688.240	19389.010
688.368	19456.894
688.496	19313.750
688.624	19261.548
688.752	19335.567
688.880	19170.125
689.008	19086.654
689.137	19067.096
689.265	18967.365
689.393	18918.260
689.521	18872.048
689.649	18948.635
689.777	18819.337
689.905	18814.779
690.033	18642.269
690.162	18608.933
690.290	18630.096
690.418	18515.000
690.546	18524.442
690.674	18480.971
690.802	18434.279
690.930	18362.769
691.058	18312.510
691.187	18208.673
691.315	18143.827
691.443	18105.144
691.571	18081.990
691.699	17952.673
691.827	17924.298
691.955	17887.894
692.083	17838.981
692.212	17775.183
692.340	17747.529
692.468	17727.077
692.596	17658.606
692.724	17574.471
692.852	17580.346
692.980	17510.952
693.108	17510.538
693.237	17369.115
693.365	17298.654
693.493	17261.875
693.621	17225.529
693.749	17094.962
693.877	17129.269
694.005	16967.567
694.133	16902.231
694.262	16964.702
694.390	16793.538
694.518	16763.529
694.646	16770.115
694.774	16611.635
694.902	16590.548
695.030	16535.827
695.158	16493.721
695.287	16432.933
695.415	16390.308
695.543	16301.615
695.671	16184.279
695.799	16277.865
695.927	16111.058
696.055	16097.798
696.183	16005.769
696.312	16105.529
696.440	15921.365
696.568	15936.990
696.696	15727.106
696.824	15682.442
696.952	15640.923
697.080	15595.875
697.208	15494.990
697.337	15467.538
697.465	15419.875
697.593	15333.288
697.721	15452.827
697.849	15250.731
697.977	15227.048
698.105	15241.519
698.233	15130.356
698.362	15013.692
698.490	15101.135
698.618	14928.048
698.746	14886.173
698.874	14906.481
699.002	14812.058
699.130	14815.856
699.258	14719.952
699.387	14641.702
699.515	14638.048
699.643	14610.144
699.771	14613.827
699.899	14457.356
700.027	14356.269
700.155	14369.173
700.283	14236.298
700.412	14219.904
700.540	14216.298
700.668	14241.577
700.796	14092.462
700.924	14106.615
701.052	14017.308
701.180	14013.269
701.308	13910.087
701.437	13828.952
701.565	13771.519
701.693	13795.394
701.821	13944.260
701.949	13663.644
702.077	13604.163
702.205	13646.750
702.333	13476.817
702.462	13451.019
702.590	13454.240
702.718	13338.010
702.846	13448.385
702.974	13260.048
703.102	13196.067
703.230	13176.173
703.358	13105.942
703.487	13029.856
703.615	13032.712
703.743	12971.375
703.871	12926.510
703.999	12847.029
704.127	12797.096
704.255	12759.731
704.383	12730.337
704.512	12715.481
704.640	12664.269
704.768	12682.000
704.896	12523.433
705.024	12448.163
705.152	12430.163
705.280	12424.000
705.408	12301.048
705.537	12232.856
705.665	12209.587
705.793	12181.827
705.921	12140.404
706.049	12002.673
706.177	12049.212
706.305	11938.846
706.433	11940.721
706.562	11894.125
706.690	11836.875
706.818	11807.067
706.946	11746.808
707.074	11639.067
707.202	11605.327
707.330	11545.913
707.458	11532.337
707.587	11479.596
707.715	11470.519
707.843	11421.183
707.971	11414.308
708.099	11280.010
708.227	11230.596
708.355	11241.038
708.483	11146.952
708.612	11123.442
708.740	11057.625
708.868	11022.202
708.996	11064.298
709.124	11006.433
709.252	10970.490
709.380	10928.731
709.508	10869.577
709.637	10866.587
709.765	10800.365
709.893	10801.933
710.021	10679.673
710.149	10783.413
710.277	10607.510
710.405	10607.356
710.533	10592.462
710.662	10528.885
710.790	10621.202
710.918	10429.019
711.046	10432.058
711.174	10376.837
711.302	10370.048
711.430	10285.394
711.558	10320.654
711.687	10234.288
711.815	10176.702
711.943	10134.913
712.071	10125.154
712.199	10131.279
712.327	10166.990
712.455	9981.019
712.583	10171.346
712.712	9976.731
712.840	10007.519
712.968	9896.317
713.096	9875.933
713.224	9803.240
713.352	9791.327
713.480	9717.817
713.608	9698.635
713.737	9669.529
713.865	9690.048
713.993	9639.077
714.121	9634.337
714.249	9555.587
714.377	9504.298
714.505	9504.106
714.633	9457.269
714.762	9439.010
714.890	9397.106
715.018	9370.558
715.146	9373.212
715.274	9296.875
715.402	9270.183
715.530	9282.788
715.658	9254.875
715.787	9188.712
715.915	9256.500
716.043	9138.644
716.171	9248.548
716.299	9045.173
716.427	9132.769
716.555	9003.538
716.683	9009.135
716.812	8973.269
716.940	8932.423
717.068	8887.962
717.196	9035.000
717.324	8859.904
717.452	8822.154
717.580	8870.673
717.708	8741.865
717.837	8710.933
717.965	8724.413
718.093	8647.529
718.221	8687.548
718.349	8703.673
718.477	8607.000
718.605	8692.154
718.733	8541.808
718.862	8568.625
718.990	8462.577
719.118	8536.471
719.246	8421.019
719.374	8380.298
719.502	8393.250
719.630	8479.942
