sample15h_at_750.00nm_cut_at_1060.50Y_01.dat
19.06.2023
11:22:47
cut middle at Y: 1060.50
top cursor: 1109 down cursor: 1012 mean of: 97 lines , 2560 datapoints
wavelength(nm)	intensity[arb. units]
585.996	773.732
586.124	755.289
586.252	746.515
586.380	750.371
586.508	760.918
586.637	754.763
586.765	759.866
586.893	750.124
587.021	764.134
587.149	762.907
587.277	764.247
587.405	768.216
587.533	762.691
587.662	763.474
587.790	770.227
587.918	767.000
588.046	774.309
588.174	770.691
588.302	774.907
588.430	767.072
588.558	775.443
588.687	773.928
588.815	781.165
588.943	782.608
589.071	776.866
589.199	783.979
589.327	777.784
589.455	773.113
589.583	783.454
589.712	787.258
589.840	784.196
589.968	782.216
590.096	790.711
590.224	789.619
590.352	784.289
590.480	787.680
590.608	792.309
590.737	778.969
590.865	787.814
590.993	786.041
591.121	797.845
591.249	794.485
591.377	801.021
591.505	798.608
591.633	798.526
591.762	809.392
591.890	808.649
592.018	798.845
592.146	800.000
592.274	801.526
592.402	791.784
592.530	806.588
592.658	802.526
592.787	808.330
592.915	792.258
593.043	804.041
593.171	805.784
593.299	810.835
593.427	808.299
593.555	801.113
593.683	798.423
593.812	805.856
593.940	805.918
594.068	808.773
594.196	806.495
594.324	812.876
594.452	806.515
594.580	816.206
594.708	819.722
594.837	817.340
594.965	814.155
595.093	817.639
595.221	819.371
595.349	820.990
595.477	827.175
595.605	824.845
595.733	824.371
595.862	822.000
595.990	817.866
596.118	828.443
596.246	834.907
596.374	824.155
596.502	825.722
596.630	835.186
596.758	835.216
596.887	839.268
597.015	835.639
597.143	837.577
597.271	835.670
597.399	837.330
597.527	844.660
597.655	840.278
597.783	839.876
597.912	832.546
598.040	846.505
598.168	839.670
598.296	837.680
598.424	840.340
598.552	842.557
598.680	838.639
598.808	838.000
598.937	842.722
599.065	843.454
599.193	841.588
599.321	829.557
599.449	840.103
599.577	839.784
599.705	842.196
599.833	846.794
599.962	839.082
600.090	841.608
600.218	845.278
600.346	842.557
600.474	845.082
600.602	844.289
600.730	845.258
600.858	846.515
600.987	844.340
601.115	848.835
601.243	848.082
601.371	841.134
601.499	853.876
601.627	840.505
601.755	854.557
601.883	861.938
602.012	861.670
602.140	860.113
602.268	867.907
602.396	857.773
602.524	867.124
602.652	861.443
602.780	869.814
602.908	858.371
603.037	869.155
603.165	861.938
603.293	874.443
603.421	880.546
603.549	872.660
603.677	887.258
603.805	873.021
603.933	887.361
604.062	884.928
604.190	896.660
604.318	884.299
604.446	889.835
604.574	886.598
604.702	891.794
604.830	887.876
604.958	897.186
605.087	904.175
605.215	900.897
605.343	901.825
605.471	913.423
605.599	901.227
605.727	919.649
605.855	911.505
605.983	907.124
606.112	916.773
606.240	919.454
606.368	920.165
606.496	914.588
606.624	914.495
606.752	915.979
606.880	916.619
607.008	919.330
607.137	923.278
607.265	916.278
607.393	933.979
607.521	923.814
607.649	917.794
607.777	913.330
607.905	921.536
608.033	923.299
608.162	917.155
608.290	922.629
608.418	934.474
608.546	920.629
608.674	923.216
608.802	927.753
608.930	927.660
609.058	918.216
609.187	918.732
609.315	923.598
609.443	920.608
609.571	914.907
609.699	923.082
609.827	912.680
609.955	918.701
610.083	924.918
610.212	932.268
610.340	925.278
610.468	917.464
610.596	923.515
610.724	917.753
610.852	918.567
610.980	919.041
611.108	932.495
611.237	913.629
611.365	922.237
611.493	924.619
611.621	923.144
611.749	931.928
611.877	923.474
612.005	923.918
612.133	923.072
612.262	923.577
612.390	933.773
612.518	931.588
612.646	934.938
612.774	925.629
612.902	937.052
613.030	938.577
613.158	929.639
613.287	945.000
613.415	948.041
613.543	940.784
613.671	939.031
613.799	946.680
613.927	947.206
614.055	947.691
614.183	943.454
614.312	946.588
614.440	949.619
614.568	948.423
614.696	952.938
614.824	953.608
614.952	955.495
615.080	962.577
615.208	965.979
615.337	961.392
615.465	951.505
615.593	955.711
615.721	958.268
615.849	956.979
615.977	972.258
616.105	961.093
616.233	966.474
616.362	973.505
616.490	968.381
616.618	971.206
616.746	962.773
616.874	976.237
617.002	972.464
617.130	971.649
617.258	968.680
617.387	964.588
617.515	970.835
617.643	979.165
617.771	977.866
617.899	963.814
618.027	969.990
618.155	962.402
618.283	973.041
618.412	973.103
618.540	971.082
618.668	976.794
618.796	972.392
618.924	979.113
619.052	984.722
619.180	976.856
619.308	984.082
619.437	979.979
619.565	981.278
619.693	974.629
619.821	977.546
619.949	982.876
620.077	988.948
620.205	973.711
620.333	980.691
620.462	1002.732
620.590	989.351
620.718	988.577
620.846	985.072
620.974	995.619
621.102	988.474
621.230	984.505
621.358	985.031
621.487	983.711
621.615	986.351
621.743	997.948
621.871	996.464
621.999	989.742
622.127	985.711
622.255	977.598
622.383	988.526
622.512	995.124
622.640	993.763
622.768	990.423
622.896	988.495
623.024	981.289
623.152	995.629
623.280	981.835
623.408	986.021
623.537	993.485
623.665	997.856
623.793	994.165
623.921	988.144
624.049	992.536
624.177	991.536
624.305	994.691
624.433	993.093
624.562	985.619
624.690	991.351
624.818	984.505
624.946	992.330
625.074	985.753
625.202	988.546
625.330	993.660
625.458	991.062
625.587	989.299
625.715	990.268
625.843	978.722
625.971	986.062
626.099	983.835
626.227	998.928
626.355	985.711
626.483	995.423
626.612	992.320
626.740	986.227
626.868	1000.072
626.996	992.866
627.124	985.794
627.252	987.330
627.380	974.753
627.508	981.082
627.637	982.670
627.765	991.031
627.893	992.052
628.021	983.742
628.149	994.701
628.277	986.773
628.405	997.485
628.533	988.670
628.662	978.124
628.790	993.464
628.918	982.866
629.046	979.897
629.174	976.351
629.302	988.588
629.430	989.082
629.558	985.711
629.687	984.608
629.815	987.629
629.943	995.835
630.071	989.216
630.199	989.742
630.327	997.680
630.455	996.381
630.583	995.309
630.712	1001.918
630.840	987.567
630.968	1004.299
631.096	995.041
631.224	994.392
631.352	990.629
631.480	997.515
631.608	990.546
631.737	981.763
631.865	1006.763
631.993	998.330
632.121	987.856
632.249	1004.804
632.377	1000.835
632.505	995.000
632.633	986.938
632.762	996.567
632.890	992.175
633.018	997.247
633.146	989.505
633.274	999.289
633.402	990.175
633.530	992.381
633.658	990.103
633.787	988.330
633.915	991.072
634.043	983.598
634.171	990.897
634.299	999.588
634.427	989.278
634.555	994.649
634.683	984.371
634.812	981.948
634.940	982.113
635.068	975.536
635.196	983.546
635.324	994.876
635.452	980.000
635.580	975.814
635.708	982.103
635.837	972.753
635.965	972.557
636.093	973.155
636.221	969.526
636.349	972.010
636.477	975.608
636.605	973.845
636.733	970.866
636.862	960.536
636.990	961.247
637.118	966.206
637.246	960.887
637.374	968.454
637.502	961.567
637.630	967.351
637.758	956.247
637.887	962.876
638.015	961.216
638.143	956.928
638.271	951.371
638.399	944.814
638.527	944.485
638.655	953.598
638.783	949.588
638.912	951.680
639.040	950.856
639.168	946.691
639.296	947.907
639.424	943.247
639.552	945.371
639.680	941.289
639.808	941.268
639.937	932.825
640.065	944.567
640.193	942.856
640.321	947.711
640.449	939.598
640.577	940.536
640.705	931.124
640.833	937.629
640.962	932.526
641.090	947.124
641.218	944.196
641.346	931.247
641.474	934.588
641.602	937.454
641.730	936.660
641.858	938.608
641.987	933.742
642.115	940.381
642.243	931.876
642.371	938.794
642.499	923.897
642.627	928.402
642.755	932.959
642.883	943.773
643.012	931.216
643.140	939.897
643.268	926.144
643.396	931.680
643.524	935.433
643.652	934.619
643.780	931.361
643.908	937.474
644.037	933.629
644.165	930.722
644.293	933.371
644.421	931.979
644.549	942.742
644.677	942.608
644.805	931.804
644.933	938.031
645.062	940.495
645.190	921.258
645.318	929.557
645.446	939.186
645.574	927.433
645.702	932.392
645.830	927.392
645.958	934.371
646.087	938.887
646.215	937.433
646.343	922.392
646.471	930.835
646.599	924.897
646.727	926.330
646.855	927.856
646.983	923.753
647.112	920.155
647.240	933.361
647.368	921.608
647.496	919.010
647.624	918.814
647.752	916.979
647.880	918.258
648.008	917.691
648.137	904.887
648.265	902.412
648.393	910.423
648.521	911.278
648.649	910.196
648.777	897.093
648.905	906.856
649.033	898.887
649.162	900.392
649.290	894.268
649.418	896.825
649.546	891.392
649.674	901.897
649.802	905.660
649.930	899.515
650.058	889.381
650.187	885.237
650.315	900.536
650.443	880.258
650.571	885.268
650.699	886.082
650.827	888.959
650.955	882.330
651.083	882.072
651.212	880.773
651.340	882.124
651.468	878.412
651.596	878.969
651.724	880.402
651.852	863.392
651.980	874.464
652.108	877.619
652.237	871.887
652.365	864.113
652.493	867.660
652.621	867.948
652.749	871.361
652.877	870.072
653.005	867.598
653.133	871.598
653.262	861.784
653.390	864.495
653.518	861.072
653.646	859.918
653.774	862.629
653.902	865.237
654.030	853.258
654.158	849.959
654.287	856.629
654.415	852.423
654.543	856.268
654.671	851.258
654.799	851.268
654.927	852.227
655.055	843.155
655.183	842.887
655.312	831.227
655.440	848.062
655.568	842.526
655.696	838.113
655.824	842.794
655.952	838.268
656.080	823.598
656.208	844.381
656.337	835.454
656.465	837.907
656.593	830.113
656.721	831.835
656.849	831.175
656.977	818.134
657.105	830.464
657.233	822.979
657.362	817.753
657.490	822.175
657.618	824.258
657.746	822.258
657.874	813.237
658.002	816.320
658.130	810.113
658.258	813.237
658.387	815.546
658.515	806.598
658.643	811.454
658.771	814.216
658.899	799.691
659.027	807.804
659.155	801.639
659.283	794.794
659.412	797.969
659.540	798.526
659.668	805.402
659.796	792.948
659.924	792.711
660.052	799.588
660.180	798.979
660.308	792.082
660.437	792.753
660.565	790.598
660.693	788.938
660.821	789.392
660.949	799.206
661.077	782.330
661.205	786.649
661.333	786.268
661.462	784.299
661.590	786.031
661.718	776.887
661.846	785.742
661.974	789.577
662.102	779.227
662.230	781.381
662.358	771.258
662.487	774.454
662.615	770.495
662.743	774.918
662.871	774.402
662.999	771.206
663.127	766.619
663.255	773.887
663.383	774.773
663.512	774.928
663.640	764.278
663.768	766.010
663.896	764.722
664.024	767.629
664.152	760.794
664.280	766.113
664.408	762.546
664.537	769.351
664.665	766.289
664.793	760.835
664.921	755.165
665.049	756.155
665.177	761.866
665.305	757.557
665.433	756.474
665.562	759.423
665.690	754.474
665.818	750.227
665.946	747.763
666.074	751.309
666.202	754.485
666.330	753.835
666.458	746.093
666.587	748.124
666.715	752.505
666.843	754.784
666.971	743.381
667.099	747.691
667.227	749.928
667.355	753.598
667.483	742.660
667.612	744.072
667.740	736.711
667.868	738.948
667.996	735.722
668.124	742.216
668.252	735.515
668.380	726.289
668.508	737.979
668.637	739.351
668.765	735.680
668.893	735.381
669.021	725.196
669.149	728.155
669.277	719.175
669.405	718.969
669.533	726.196
669.662	723.742
669.790	717.495
669.918	724.402
670.046	724.052
670.174	713.041
670.302	721.979
670.430	708.144
670.558	715.505
670.687	709.567
670.815	703.835
670.943	710.835
671.071	708.866
671.199	698.062
671.327	697.959
671.455	703.918
671.583	700.948
671.712	699.691
671.840	695.887
671.968	695.082
672.096	699.577
672.224	695.557
672.352	688.691
672.480	688.959
672.608	691.361
672.737	683.485
672.865	680.186
672.993	684.474
673.121	680.495
673.249	677.412
673.377	674.773
673.505	680.103
673.633	671.165
673.762	671.907
673.890	672.423
674.018	671.268
674.146	666.227
674.274	665.000
674.402	665.577
674.530	666.567
674.658	662.165
674.787	656.052
674.915	658.990
675.043	658.423
675.171	656.474
675.299	653.763
675.427	654.196
675.555	655.835
675.683	643.237
675.812	647.175
675.940	639.340
676.068	648.732
676.196	636.082
676.324	635.794
676.452	640.093
676.580	638.536
676.708	633.113
676.837	640.072
676.965	633.155
677.093	636.732
677.221	629.546
677.349	624.443
677.477	629.588
677.605	620.371
677.733	628.907
677.862	617.433
677.990	622.763
678.118	618.505
678.246	610.866
678.374	612.299
678.502	614.278
678.630	607.351
678.758	610.124
678.887	605.000
679.015	622.155
679.143	607.691
679.271	607.577
679.399	603.629
679.527	599.784
679.655	607.835
679.783	603.155
679.912	596.959
680.040	597.186
680.168	595.144
680.296	592.000
680.424	590.577
680.552	590.619
680.680	591.443
680.808	587.381
680.937	591.649
681.065	594.928
681.193	587.536
681.321	586.320
681.449	585.979
681.577	579.660
681.705	579.763
681.833	580.361
681.962	579.340
682.090	581.670
682.218	584.918
682.346	575.959
682.474	581.691
682.602	580.577
682.730	572.093
682.858	577.423
682.987	571.155
683.115	568.670
683.243	573.784
683.371	569.041
683.499	569.928
683.627	574.701
683.755	561.402
683.883	568.021
684.012	563.299
684.140	562.557
684.268	556.938
684.396	564.670
684.524	560.299
684.652	564.206
684.780	566.278
684.908	559.247
685.037	559.186
685.165	557.948
685.293	553.175
685.421	555.773
685.549	554.814
685.677	555.144
685.805	550.722
685.933	550.608
686.062	548.979
686.190	547.691
686.318	554.052
686.446	547.433
686.574	551.196
686.702	555.103
686.830	545.711
686.958	545.639
687.087	554.784
687.215	539.196
687.343	543.031
687.471	546.876
687.599	544.021
687.727	539.969
687.855	543.144
687.983	542.907
688.112	535.443
688.240	534.814
688.368	537.052
688.496	538.804
688.624	534.608
688.752	537.794
688.880	534.742
689.008	535.371
689.137	542.175
689.265	528.062
689.393	533.938
689.521	532.660
689.649	528.649
689.777	527.866
689.905	523.196
690.033	525.907
690.162	522.979
690.290	527.598
690.418	516.392
690.546	517.557
690.674	518.227
690.802	511.680
690.930	508.175
691.058	511.784
691.187	509.691
691.315	512.041
691.443	514.340
691.571	508.082
691.699	506.433
691.827	504.289
691.955	506.835
692.083	501.485
692.212	505.588
692.340	501.412
692.468	508.247
692.596	496.701
692.724	498.340
692.852	485.010
692.980	493.732
693.108	488.041
693.237	489.443
693.365	495.433
693.493	486.753
693.621	488.907
693.749	487.227
693.877	480.412
694.005	480.835
694.133	484.299
694.262	482.515
694.390	481.567
694.518	474.402
694.646	472.639
694.774	476.351
694.902	464.031
695.030	476.897
695.158	475.938
695.287	463.031
695.415	469.134
695.543	469.588
695.671	466.546
695.799	464.660
695.927	460.845
696.055	459.639
696.183	466.299
696.312	460.103
696.440	457.175
696.568	462.753
696.696	457.247
696.824	452.361
696.952	454.918
697.080	452.134
697.208	458.433
697.337	447.948
697.465	453.021
697.593	447.278
697.721	439.289
697.849	451.196
697.977	443.206
698.105	439.258
698.233	447.773
698.362	444.866
698.490	446.082
698.618	444.402
698.746	438.103
698.874	436.278
699.002	440.072
699.130	431.289
699.258	442.567
699.387	433.546
699.515	433.351
699.643	425.670
699.771	426.082
699.899	433.392
700.027	429.340
700.155	433.361
700.283	424.000
700.412	417.031
700.540	424.773
700.668	419.918
700.796	421.392
700.924	418.021
701.052	416.639
701.180	417.722
701.308	416.557
701.437	416.351
701.565	412.144
701.693	410.814
701.821	411.722
701.949	409.814
702.077	411.268
702.205	408.938
702.333	410.082
702.462	406.938
702.590	401.381
702.718	399.515
702.846	402.381
702.974	405.278
703.102	400.773
703.230	398.876
703.358	394.763
703.487	393.082
703.615	395.763
703.743	389.206
703.871	393.072
703.999	389.237
704.127	389.639
704.255	382.485
704.383	387.515
704.512	384.948
704.640	386.567
704.768	380.289
704.896	383.928
705.024	373.722
705.152	377.186
705.280	382.536
705.408	376.557
705.537	374.371
705.665	373.680
705.793	374.639
705.921	369.330
706.049	369.598
706.177	364.825
706.305	374.722
706.433	368.629
706.562	365.454
706.690	366.474
706.818	366.845
706.946	365.938
707.074	363.856
707.202	360.196
707.330	360.763
707.458	361.711
707.587	356.340
707.715	356.866
707.843	353.907
707.971	355.072
708.099	353.474
708.227	352.206
708.355	354.392
708.483	355.258
708.612	353.670
708.740	350.649
708.868	350.062
708.996	346.155
709.124	351.825
709.252	345.557
709.380	345.835
709.508	337.784
709.637	343.309
709.765	338.660
709.893	338.794
710.021	340.062
710.149	339.784
710.277	341.299
710.405	340.052
710.533	336.206
710.662	336.361
710.790	337.577
710.918	333.526
711.046	335.103
711.174	340.031
711.302	334.175
711.430	332.134
711.558	336.711
711.687	338.103
711.815	331.113
711.943	330.660
712.071	332.144
712.199	328.701
712.327	321.598
712.455	327.845
712.583	329.680
712.712	329.392
712.840	327.959
712.968	325.052
713.096	328.289
713.224	320.062
713.352	325.557
713.480	322.577
713.608	319.258
713.737	323.196
713.865	319.732
713.993	321.969
714.121	318.608
714.249	321.835
714.377	315.186
714.505	314.825
714.633	314.948
714.762	318.608
714.890	314.247
715.018	316.722
715.146	311.289
715.274	309.371
715.402	311.536
715.530	309.608
715.658	310.402
715.787	307.928
715.915	310.237
716.043	305.588
716.171	311.268
716.299	312.969
716.427	306.381
716.555	309.639
716.683	305.835
716.812	304.990
716.940	312.268
717.068	307.351
717.196	302.093
717.324	307.124
717.452	301.845
717.580	299.938
717.708	306.186
717.837	299.887
717.965	296.887
718.093	301.485
718.221	294.701
718.349	296.546
718.477	297.825
718.605	294.691
718.733	295.649
718.862	293.649
718.990	292.969
719.118	290.278
719.246	287.082
719.374	290.608
719.502	291.186
719.630	287.608
719.758	293.670
719.887	287.691
720.015	287.804
720.143	283.474
720.271	290.247
720.399	287.866
720.527	283.186
720.655	282.577
720.783	285.598
720.912	283.072
721.040	283.536
721.168	278.155
721.296	278.649
721.424	282.237
721.552	279.711
721.680	279.144
721.808	274.031
721.937	279.021
722.065	275.072
722.193	271.907
722.321	274.505
722.449	269.619
722.577	276.794
722.705	271.804
722.833	274.165
722.962	270.175
723.090	266.052
723.218	267.990
723.346	271.866
723.474	265.608
723.602	261.268
723.730	262.773
723.858	268.928
723.987	263.567
724.115	266.175
724.243	259.237
724.371	263.794
724.499	257.062
724.627	260.691
724.755	260.165
724.883	257.588
725.012	255.598
725.140	254.711
725.268	259.526
725.396	257.825
725.524	256.773
725.652	253.979
725.780	249.052
725.908	251.784
726.037	250.969
726.165	253.701
726.293	244.247
726.421	254.907
726.549	247.175
726.677	252.113
726.805	245.454
726.933	248.216
727.062	244.278
727.190	244.351
727.318	245.474
727.446	242.402
727.574	250.546
727.702	250.412
727.830	242.701
727.958	241.021
728.087	240.000
728.215	239.969
728.343	240.515
728.471	244.144
728.599	238.351
728.727	241.660
728.855	246.052
728.983	240.557
729.112	235.948
729.240	238.155
729.368	232.082
729.496	237.814
729.624	236.722
729.752	237.258
729.880	234.278
730.008	236.897
730.137	229.278
730.265	235.680
730.393	231.845
730.521	230.536
730.649	233.381
730.777	228.887
730.905	228.299
731.033	225.247
731.162	228.237
731.290	223.990
731.418	227.031
731.546	227.289
731.674	223.278
731.802	223.619
731.930	221.381
732.058	224.309
732.187	223.134
732.315	226.784
732.443	227.567
732.571	221.866
732.699	227.649
732.827	219.392
732.955	219.155
733.083	219.062
733.212	223.557
733.340	222.031
733.468	217.856
733.596	217.423
733.724	220.660
733.852	217.711
733.980	221.814
734.108	218.660
734.237	217.557
734.365	216.093
734.493	217.495
734.621	218.072
734.749	215.402
734.877	215.031
735.005	214.814
735.133	216.660
735.262	211.041
735.390	213.753
735.518	213.000
735.646	212.753
735.774	214.268
735.902	213.856
736.030	214.711
736.158	215.412
736.287	209.340
736.415	214.134
736.543	212.247
736.671	209.495
736.799	210.794
736.927	205.237
737.055	207.392
737.183	209.794
737.312	207.464
737.440	209.536
737.568	212.588
737.696	210.237
737.824	207.155
737.952	210.454
738.080	207.794
738.208	205.845
738.337	205.938
738.465	206.175
738.593	200.825
738.721	204.990
738.849	207.804
738.977	204.784
739.105	204.031
739.233	200.948
739.362	202.392
739.490	202.742
739.618	200.567
739.746	206.443
739.874	201.938
740.002	202.598
740.130	199.021
740.258	201.979
740.387	198.443
740.515	204.835
740.643	204.206
740.771	201.742
740.899	198.237
741.027	196.227
741.155	200.175
741.283	199.196
741.412	194.825
741.540	198.072
741.668	200.155
741.796	197.577
741.924	198.969
742.052	198.052
742.180	197.237
742.308	194.144
742.437	198.155
742.565	192.938
742.693	195.639
742.821	194.608
742.949	192.742
743.077	193.711
743.205	195.670
743.333	193.227
743.462	194.103
743.590	190.433
743.718	193.175
743.846	193.082
743.974	192.505
744.102	190.670
744.230	192.515
744.358	192.052
