sample4h_at_750.00nm_cut_at_1060.50Y_01.dat
19.06.2023
11:07:07
cut middle at Y: 1060.50
top cursor: 1109 down cursor: 1012 mean of: 97 lines , 2560 datapoints
wavelength(nm)	intensity[arb. units]
585.996	883.948
586.124	858.072
586.252	856.361
586.380	856.392
586.508	856.206
586.637	862.990
586.765	860.454
586.893	860.186
587.021	873.598
587.149	868.485
587.277	865.825
587.405	882.515
587.533	867.454
587.662	878.031
587.790	874.320
587.918	878.536
588.046	873.866
588.174	871.330
588.302	874.000
588.430	872.711
588.558	879.021
588.687	878.268
588.815	887.979
588.943	891.402
589.071	887.825
589.199	894.268
589.327	890.464
589.455	882.454
589.583	887.196
589.712	895.485
589.840	886.639
589.968	888.835
590.096	900.155
590.224	898.175
590.352	899.907
590.480	894.629
590.608	899.928
590.737	898.546
590.865	906.165
590.993	912.371
591.121	900.443
591.249	911.216
591.377	909.515
591.505	904.897
591.633	914.113
591.762	915.763
591.890	915.691
592.018	918.258
592.146	916.722
592.274	914.887
592.402	909.938
592.530	910.412
592.658	909.990
592.787	917.464
592.915	915.361
593.043	920.505
593.171	924.124
593.299	927.804
593.427	924.629
593.555	913.515
593.683	919.175
593.812	919.454
593.940	937.113
594.068	940.536
594.196	931.835
594.324	927.186
594.452	941.876
594.580	943.639
594.708	939.165
594.837	940.258
594.965	944.402
595.093	943.598
595.221	945.423
595.349	949.691
595.477	954.299
595.605	951.268
595.733	960.907
595.862	954.268
595.990	959.289
596.118	956.392
596.246	966.526
596.374	960.722
596.502	960.948
596.630	969.258
596.758	965.959
596.887	971.814
597.015	968.691
597.143	973.124
597.271	968.371
597.399	972.649
597.527	967.351
597.655	977.649
597.783	974.299
597.912	972.557
598.040	965.753
598.168	972.773
598.296	966.938
598.424	972.825
598.552	979.753
598.680	969.258
598.808	980.289
598.937	980.454
599.065	979.526
599.193	980.856
599.321	971.175
599.449	981.000
599.577	986.948
599.705	971.021
599.833	982.876
599.962	977.598
600.090	979.103
600.218	983.907
600.346	984.381
600.474	985.691
600.602	982.845
600.730	986.691
600.858	983.082
600.987	994.103
601.115	993.082
601.243	977.763
601.371	988.144
601.499	983.608
601.627	993.907
601.755	1002.670
601.883	1009.309
602.012	1008.691
602.140	1003.093
602.268	1002.856
602.396	1010.773
602.524	1000.000
602.652	1016.907
602.780	1021.990
602.908	1020.598
603.037	1025.629
603.165	1033.010
603.293	1033.753
603.421	1025.577
603.549	1020.546
603.677	1037.897
603.805	1037.732
603.933	1041.247
604.062	1037.309
604.190	1058.258
604.318	1052.278
604.446	1057.557
604.574	1050.392
604.702	1061.866
604.830	1051.515
604.958	1052.247
605.087	1078.753
605.215	1072.680
605.343	1075.155
605.471	1086.835
605.599	1074.629
605.727	1081.639
605.855	1080.309
605.983	1076.361
606.112	1093.196
606.240	1086.691
606.368	1096.660
606.496	1086.835
606.624	1086.186
606.752	1087.443
606.880	1092.433
607.008	1100.278
607.137	1105.856
607.265	1095.278
607.393	1107.938
607.521	1099.804
607.649	1104.990
607.777	1107.237
607.905	1105.371
608.033	1114.237
608.162	1101.773
608.290	1097.495
608.418	1109.505
608.546	1107.804
608.674	1125.639
608.802	1108.680
608.930	1119.062
609.058	1111.866
609.187	1110.113
609.315	1115.619
609.443	1111.031
609.571	1112.433
609.699	1102.804
609.827	1114.175
609.955	1111.464
610.083	1104.835
610.212	1114.577
610.340	1118.402
610.468	1124.649
610.596	1119.794
610.724	1118.454
610.852	1108.134
610.980	1118.948
611.108	1118.722
611.237	1118.794
611.365	1117.423
611.493	1121.918
611.621	1125.247
611.749	1121.845
611.877	1132.052
612.005	1141.619
612.133	1131.515
612.262	1134.144
612.390	1134.784
612.518	1136.536
612.646	1143.258
612.774	1135.680
612.902	1155.505
613.030	1150.299
613.158	1145.454
613.287	1161.557
613.415	1158.835
613.543	1158.320
613.671	1153.680
613.799	1146.938
613.927	1168.309
614.055	1168.588
614.183	1173.485
614.312	1168.340
614.440	1172.412
614.568	1175.000
614.696	1175.825
614.824	1182.010
614.952	1173.969
615.080	1196.629
615.208	1192.515
615.337	1196.433
615.465	1189.021
615.593	1191.443
615.721	1195.608
615.849	1201.052
615.977	1190.804
616.105	1193.546
616.233	1214.629
616.362	1206.567
616.490	1212.536
616.618	1213.485
616.746	1196.206
616.874	1205.928
617.002	1218.206
617.130	1215.103
617.258	1205.608
617.387	1214.938
617.515	1214.969
617.643	1222.464
617.771	1231.814
617.899	1238.598
618.027	1214.670
618.155	1224.134
618.283	1236.835
618.412	1229.134
618.540	1234.619
618.668	1234.196
618.796	1245.186
618.924	1242.608
619.052	1232.052
619.180	1238.856
619.308	1241.742
619.437	1249.010
619.565	1248.773
619.693	1244.485
619.821	1250.381
619.949	1236.021
620.077	1250.660
620.205	1251.794
620.333	1258.237
620.462	1266.124
620.590	1268.495
620.718	1266.247
620.846	1264.773
620.974	1264.247
621.102	1272.392
621.230	1275.000
621.358	1266.186
621.487	1260.918
621.615	1271.763
621.743	1282.928
621.871	1271.268
621.999	1269.588
622.127	1275.196
622.255	1271.165
622.383	1281.680
622.512	1286.268
622.640	1292.794
622.768	1283.000
622.896	1284.711
623.024	1267.784
623.152	1293.268
623.280	1281.443
623.408	1303.175
623.537	1291.505
623.665	1298.649
623.793	1292.309
623.921	1282.979
624.049	1287.845
624.177	1301.412
624.305	1290.608
624.433	1308.206
624.562	1304.268
624.690	1299.258
624.818	1303.948
624.946	1313.825
625.074	1307.722
625.202	1302.010
625.330	1303.866
625.458	1316.557
625.587	1318.495
625.715	1305.485
625.843	1322.062
625.971	1311.165
626.099	1315.000
626.227	1323.773
626.355	1317.990
626.483	1319.041
626.612	1304.619
626.740	1312.021
626.868	1327.402
626.996	1316.093
627.124	1312.031
627.252	1317.938
627.380	1322.495
627.508	1319.186
627.637	1317.052
627.765	1329.856
627.893	1337.722
628.021	1319.742
628.149	1334.526
628.277	1338.289
628.405	1334.196
628.533	1337.918
628.662	1328.567
628.790	1336.660
628.918	1339.402
629.046	1336.000
629.174	1329.897
629.302	1342.732
629.430	1343.268
629.558	1346.010
629.687	1352.495
629.815	1346.526
629.943	1346.289
630.071	1363.330
630.199	1366.103
630.327	1345.402
630.455	1347.515
630.583	1363.278
630.712	1370.062
630.840	1356.093
630.968	1373.041
631.096	1383.371
631.224	1374.361
631.352	1368.021
631.480	1369.041
631.608	1390.113
631.737	1367.814
631.865	1392.175
631.993	1379.639
632.121	1377.144
632.249	1391.361
632.377	1402.866
632.505	1383.887
632.633	1392.113
632.762	1395.186
632.890	1399.887
633.018	1399.247
633.146	1384.608
633.274	1406.340
633.402	1382.660
633.530	1395.340
633.658	1404.701
633.787	1402.124
633.915	1404.216
634.043	1404.876
634.171	1399.804
634.299	1410.876
634.427	1402.660
634.555	1409.784
634.683	1406.216
634.812	1403.856
634.940	1411.990
635.068	1397.660
635.196	1403.515
635.324	1405.876
635.452	1404.691
635.580	1407.351
635.708	1401.031
635.837	1407.804
635.965	1402.856
636.093	1390.928
636.221	1408.773
636.349	1404.247
636.477	1402.206
636.605	1405.979
636.733	1389.103
636.862	1399.639
636.990	1394.186
637.118	1402.186
637.246	1390.155
637.374	1399.309
637.502	1396.268
637.630	1396.526
637.758	1387.093
637.887	1402.938
638.015	1391.526
638.143	1406.423
638.271	1386.742
638.399	1380.278
638.527	1387.546
638.655	1391.103
638.783	1404.155
638.912	1390.165
639.040	1389.639
639.168	1395.515
639.296	1393.402
639.424	1395.041
639.552	1397.144
639.680	1394.206
639.808	1392.464
639.937	1392.113
640.065	1393.928
640.193	1398.227
640.321	1394.876
640.449	1388.299
640.577	1397.206
640.705	1393.247
640.833	1402.010
640.962	1404.959
641.090	1401.887
641.218	1399.000
641.346	1398.557
641.474	1407.897
641.602	1402.711
641.730	1406.268
641.858	1401.784
641.987	1411.464
642.115	1418.196
642.243	1412.825
642.371	1426.784
642.499	1413.784
642.627	1430.392
642.755	1432.103
642.883	1431.526
643.012	1425.742
643.140	1426.567
643.268	1424.278
643.396	1443.505
643.524	1434.330
643.652	1441.165
643.780	1434.258
643.908	1428.155
644.037	1423.567
644.165	1424.381
644.293	1438.897
644.421	1441.216
644.549	1446.237
644.677	1437.567
644.805	1445.526
644.933	1452.340
645.062	1443.206
645.190	1444.887
645.318	1439.433
645.446	1461.093
645.574	1453.773
645.702	1457.577
645.830	1455.588
645.958	1463.794
646.087	1439.845
646.215	1461.711
646.343	1462.155
646.471	1453.557
646.599	1454.021
646.727	1455.474
646.855	1463.340
646.983	1463.495
647.112	1463.474
647.240	1473.186
647.368	1451.536
647.496	1448.371
647.624	1451.856
647.752	1448.763
647.880	1462.546
648.008	1461.918
648.137	1455.732
648.265	1436.495
648.393	1461.660
648.521	1456.402
648.649	1457.856
648.777	1442.392
648.905	1452.495
649.033	1439.763
649.162	1445.845
649.290	1434.351
649.418	1442.660
649.546	1436.175
649.674	1445.588
649.802	1445.433
649.930	1445.680
650.058	1448.567
650.187	1441.474
650.315	1454.454
650.443	1437.876
650.571	1434.680
650.699	1435.010
650.827	1443.845
650.955	1442.454
651.083	1446.887
651.212	1437.474
651.340	1430.588
651.468	1442.392
651.596	1434.515
651.724	1443.856
651.852	1432.412
651.980	1434.495
652.108	1432.381
652.237	1425.351
652.365	1422.536
652.493	1425.526
652.621	1430.680
652.749	1434.330
652.877	1419.237
653.005	1419.938
653.133	1441.588
653.262	1424.010
653.390	1422.371
653.518	1438.320
653.646	1434.959
653.774	1417.320
653.902	1433.814
654.030	1423.196
654.158	1426.402
654.287	1426.021
654.415	1415.495
654.543	1424.134
654.671	1418.845
654.799	1425.237
654.927	1424.742
655.055	1415.959
655.183	1414.196
655.312	1410.392
655.440	1419.928
655.568	1409.907
655.696	1410.804
655.824	1426.598
655.952	1408.959
656.080	1411.928
656.208	1423.907
656.337	1422.814
656.465	1412.186
656.593	1413.165
656.721	1415.134
656.849	1417.010
656.977	1411.000
657.105	1411.309
657.233	1405.649
657.362	1399.247
657.490	1402.412
657.618	1410.639
657.746	1406.412
657.874	1396.814
658.002	1407.000
658.130	1397.072
658.258	1401.113
658.387	1399.309
658.515	1388.876
658.643	1401.021
658.771	1409.928
658.899	1402.948
659.027	1399.381
659.155	1400.340
659.283	1394.835
659.412	1393.918
659.540	1386.485
659.668	1386.134
659.796	1385.577
659.924	1397.052
660.052	1406.464
660.180	1387.742
660.308	1388.093
660.437	1389.660
660.565	1394.691
660.693	1390.423
660.821	1393.835
660.949	1394.546
661.077	1383.464
661.205	1392.289
661.333	1391.402
661.462	1390.918
661.590	1400.206
661.718	1388.464
661.846	1397.546
661.974	1393.763
662.102	1388.155
662.230	1396.299
662.358	1374.887
662.487	1384.938
662.615	1379.052
662.743	1383.247
662.871	1387.577
662.999	1389.619
663.127	1390.670
663.255	1377.031
663.383	1383.144
663.512	1385.546
663.640	1381.526
663.768	1381.443
663.896	1392.289
664.024	1385.804
664.152	1383.103
664.280	1374.124
664.408	1382.289
664.537	1386.866
664.665	1386.897
664.793	1382.856
664.921	1379.371
665.049	1384.175
665.177	1389.680
665.305	1387.433
665.433	1387.165
665.562	1383.454
665.690	1382.928
665.818	1380.887
665.946	1382.742
666.074	1394.722
666.202	1390.629
666.330	1375.649
666.458	1380.742
666.587	1369.454
666.715	1386.010
666.843	1384.412
666.971	1381.247
667.099	1380.670
667.227	1383.948
667.355	1384.649
667.483	1377.742
667.612	1383.845
667.740	1382.052
667.868	1386.722
667.996	1379.711
668.124	1381.845
668.252	1376.536
668.380	1377.876
668.508	1379.381
668.637	1385.093
668.765	1382.680
668.893	1377.103
669.021	1380.216
669.149	1376.649
669.277	1362.113
669.405	1367.320
669.533	1375.021
669.662	1376.536
669.790	1372.680
669.918	1371.546
670.046	1376.670
670.174	1374.938
670.302	1365.639
670.430	1367.485
670.558	1363.454
670.687	1363.763
670.815	1360.773
670.943	1364.227
671.071	1351.082
671.199	1367.196
671.327	1357.536
671.455	1359.237
671.583	1362.454
671.712	1356.649
671.840	1341.577
671.968	1346.165
672.096	1346.711
672.224	1335.237
672.352	1327.948
672.480	1337.103
672.608	1339.155
672.737	1329.979
672.865	1331.247
672.993	1326.021
673.121	1326.557
673.249	1331.505
673.377	1317.897
673.505	1330.330
673.633	1311.536
673.762	1321.619
673.890	1324.742
674.018	1317.124
674.146	1315.887
674.274	1308.969
674.402	1314.753
674.530	1311.227
674.658	1309.629
674.787	1300.082
674.915	1293.928
675.043	1301.773
675.171	1298.505
675.299	1291.474
675.427	1291.041
675.555	1292.804
675.683	1286.443
675.812	1290.010
675.940	1272.206
676.068	1274.134
676.196	1270.082
676.324	1277.948
676.452	1266.278
676.580	1276.845
676.708	1267.258
676.837	1278.000
676.965	1268.031
677.093	1276.577
677.221	1263.082
677.349	1258.814
677.477	1257.021
677.605	1249.619
677.733	1257.588
677.862	1261.505
677.990	1250.216
678.118	1246.876
678.246	1247.134
678.374	1236.804
678.502	1250.577
678.630	1235.990
678.758	1243.175
678.887	1242.340
679.015	1242.773
679.143	1233.526
679.271	1246.371
679.399	1239.165
679.527	1239.639
679.655	1238.186
679.783	1230.670
679.912	1228.814
680.040	1233.990
680.168	1237.041
680.296	1220.062
680.424	1229.608
680.552	1214.577
680.680	1227.938
680.808	1224.340
680.937	1221.340
681.065	1219.649
681.193	1218.804
681.321	1218.742
681.449	1222.660
681.577	1220.113
681.705	1212.979
681.833	1216.753
681.962	1217.979
682.090	1219.402
682.218	1210.237
682.346	1210.392
682.474	1211.598
682.602	1212.216
682.730	1215.546
682.858	1210.381
682.987	1214.082
683.115	1200.381
683.243	1212.732
683.371	1217.918
683.499	1198.165
683.627	1215.959
683.755	1204.082
683.883	1195.660
684.012	1199.825
684.140	1192.907
684.268	1198.175
684.396	1210.000
684.524	1197.082
684.652	1205.825
684.780	1207.959
684.908	1194.536
685.037	1194.000
685.165	1207.515
685.293	1199.474
685.421	1200.515
685.549	1198.330
685.677	1204.701
685.805	1198.289
685.933	1212.536
686.062	1194.505
686.190	1194.825
686.318	1198.186
686.446	1193.320
686.574	1192.763
686.702	1208.072
686.830	1208.608
686.958	1204.000
687.087	1207.474
687.215	1191.258
687.343	1188.423
687.471	1191.773
687.599	1192.959
687.727	1183.598
687.855	1196.887
687.983	1182.443
688.112	1191.608
688.240	1182.536
688.368	1185.526
688.496	1185.515
688.624	1181.979
688.752	1175.588
688.880	1181.763
689.008	1189.907
689.137	1182.938
689.265	1180.381
689.393	1168.732
689.521	1170.866
689.649	1172.948
689.777	1168.052
689.905	1171.619
690.033	1163.918
690.162	1158.711
690.290	1154.784
690.418	1166.320
690.546	1159.990
690.674	1163.515
690.802	1154.711
690.930	1152.340
691.058	1156.041
691.187	1148.392
691.315	1148.021
691.443	1139.742
691.571	1148.216
691.699	1136.753
691.827	1146.340
691.955	1142.649
692.083	1138.402
692.212	1125.557
692.340	1131.010
692.468	1126.103
692.596	1120.773
692.724	1131.814
692.852	1119.144
692.980	1113.340
693.108	1112.134
693.237	1110.423
693.365	1111.814
693.493	1111.021
693.621	1111.351
693.749	1106.289
693.877	1097.608
694.005	1093.402
694.133	1099.371
694.262	1091.247
694.390	1093.454
694.518	1085.814
694.646	1086.381
694.774	1084.093
694.902	1080.052
695.030	1092.412
695.158	1071.969
695.287	1079.361
695.415	1074.206
695.543	1074.402
695.671	1076.567
695.799	1067.515
695.927	1068.474
696.055	1064.113
696.183	1071.371
696.312	1064.237
696.440	1063.515
696.568	1064.423
696.696	1044.278
696.824	1043.763
696.952	1049.237
697.080	1057.155
697.208	1053.711
697.337	1039.660
697.465	1049.175
697.593	1039.608
697.721	1040.619
697.849	1041.113
697.977	1040.845
698.105	1044.856
698.233	1034.876
698.362	1031.660
698.490	1024.588
698.618	1037.165
698.746	1030.876
698.874	1019.134
699.002	1025.794
699.130	1028.381
699.258	1016.907
699.387	1013.144
699.515	1004.969
699.643	1021.722
699.771	1010.289
699.899	1013.103
700.027	1002.474
700.155	1006.474
700.283	1003.196
700.412	999.330
700.540	990.041
700.668	997.629
700.796	993.392
700.924	981.031
701.052	997.134
701.180	980.010
701.308	975.495
701.437	983.237
701.565	975.784
701.693	964.196
701.821	972.165
701.949	960.588
702.077	970.897
702.205	971.938
702.333	959.062
702.462	961.928
702.590	951.814
702.718	944.227
702.846	944.948
702.974	952.804
703.102	946.392
703.230	943.351
703.358	933.680
703.487	931.959
703.615	927.866
703.743	925.433
703.871	922.876
703.999	926.443
704.127	917.546
704.255	914.299
704.383	916.505
704.512	910.546
704.640	910.031
704.768	902.546
704.896	900.835
705.024	894.093
705.152	891.093
705.280	895.907
705.408	887.031
705.537	894.670
705.665	895.010
705.793	883.979
705.921	882.598
706.049	875.701
706.177	878.227
706.305	881.464
706.433	868.546
706.562	866.979
706.690	865.289
706.818	856.567
706.946	857.227
707.074	857.062
707.202	843.804
707.330	839.299
707.458	848.412
707.587	840.608
707.715	841.928
707.843	835.990
707.971	841.093
708.099	830.845
708.227	834.526
708.355	830.608
708.483	823.433
708.612	828.289
708.740	824.010
708.868	821.330
708.996	822.722
709.124	814.474
709.252	815.402
709.380	808.804
709.508	806.639
709.637	817.330
709.765	802.124
709.893	802.742
710.021	799.670
710.149	798.876
710.277	807.186
710.405	797.010
710.533	796.845
710.662	786.784
710.790	796.278
710.918	792.361
711.046	788.660
711.174	788.990
711.302	783.608
711.430	778.206
711.558	781.753
711.687	781.876
711.815	777.866
711.943	777.722
712.071	777.196
712.199	770.588
712.327	757.433
712.455	763.680
712.583	769.072
712.712	768.794
712.840	753.794
712.968	755.649
713.096	758.773
713.224	753.897
713.352	750.825
713.480	750.536
713.608	751.247
713.737	748.825
713.865	743.320
713.993	750.454
714.121	744.495
714.249	742.196
714.377	733.082
714.505	744.010
714.633	735.041
714.762	730.959
714.890	739.722
715.018	740.392
715.146	726.711
715.274	730.062
715.402	724.660
715.530	734.402
715.658	712.526
715.787	721.907
715.915	721.340
716.043	715.979
716.171	718.155
716.299	718.876
716.427	714.381
716.555	705.577
716.683	704.258
716.812	704.433
716.940	705.753
717.068	696.670
717.196	703.711
717.324	695.041
717.452	694.021
717.580	689.340
717.708	695.588
717.837	689.124
717.965	685.041
718.093	679.485
718.221	681.216
718.349	682.216
718.477	683.959
718.605	674.206
718.733	670.247
718.862	667.526
718.990	669.866
719.118	665.052
719.246	667.423
719.374	665.505
719.502	665.113
719.630	655.856
719.758	648.784
719.887	655.196
720.015	655.340
720.143	645.825
720.271	649.691
720.399	642.423
720.527	647.072
720.655	641.701
720.783	639.443
720.912	636.340
721.040	634.052
721.168	638.660
721.296	632.515
721.424	631.969
721.552	623.093
721.680	621.361
721.808	619.309
721.937	614.216
722.065	614.361
722.193	604.619
722.321	616.010
722.449	602.000
722.577	601.247
722.705	591.165
722.833	595.124
722.962	592.876
723.090	590.763
723.218	592.299
723.346	585.052
723.474	576.227
723.602	586.918
723.730	580.144
723.858	580.835
723.987	577.392
724.115	577.660
724.243	577.196
724.371	568.206
724.499	569.031
724.627	560.732
724.755	566.268
724.883	564.588
725.012	557.464
725.140	551.031
725.268	550.093
725.396	542.649
725.524	541.794
725.652	542.948
725.780	540.474
725.908	540.804
726.037	531.371
726.165	535.216
726.293	529.134
726.421	528.948
726.549	524.567
726.677	523.711
726.805	524.784
726.933	519.330
727.062	515.309
727.190	512.340
727.318	520.546
727.446	513.670
727.574	517.876
727.702	507.577
727.830	509.588
727.958	505.979
728.087	507.495
728.215	498.361
728.343	502.856
728.471	500.340
728.599	490.402
728.727	494.577
728.855	493.608
728.983	486.660
729.112	479.845
729.240	480.495
729.368	479.948
729.496	483.351
729.624	478.567
729.752	478.309
729.880	478.619
730.008	481.402
730.137	469.485
730.265	468.660
730.393	463.928
730.521	460.619
730.649	461.814
730.777	465.649
730.905	464.309
731.033	459.515
731.162	457.753
731.290	455.835
731.418	449.392
731.546	449.144
731.674	447.289
731.802	456.000
731.930	446.412
732.058	444.701
732.187	441.206
732.315	447.144
732.443	440.443
732.571	436.866
732.699	439.639
732.827	439.052
732.955	431.629
733.083	433.505
733.212	431.959
733.340	438.062
733.468	429.443
733.596	429.918
733.724	429.402
733.852	425.381
733.980	422.763
734.108	419.546
734.237	419.546
734.365	424.268
734.493	421.825
734.621	414.959
734.749	414.577
734.877	414.948
735.005	419.062
735.133	412.784
735.262	412.464
735.390	407.216
735.518	406.742
735.646	399.361
735.774	404.247
735.902	405.412
736.030	399.680
736.158	400.144
736.287	396.546
736.415	399.598
736.543	399.258
736.671	393.845
736.799	389.474
736.927	390.454
737.055	391.557
737.183	386.536
737.312	388.629
737.440	380.701
737.568	388.474
737.696	383.144
737.824	381.557
737.952	383.629
738.080	378.381
738.208	378.381
