90_100_0_Pol_at_750.00nm_cut_at_1179.00Y_02.dat
03.07.2023
11:19:04
cut middle at Y: 1179.00
top cursor: 1231 down cursor: 1127 mean of: 104 lines , 2560 datapoints
wavelength(nm)	intensity[arb. units]
585.996	13706.269
586.124	13476.173
586.252	13431.625
586.380	13432.538
586.508	13493.423
586.637	13561.692
586.765	13524.885
586.893	13543.279
587.021	13604.538
587.149	13593.125
587.277	13598.058
587.405	13620.769
587.533	13683.971
587.662	13681.548
587.790	13654.760
587.918	13677.558
588.046	13614.212
588.174	13650.596
588.302	13635.317
588.430	13630.144
588.558	13620.721
588.687	13655.692
588.815	13648.971
588.943	13610.413
589.071	13627.808
589.199	13610.885
589.327	13603.712
589.455	13640.606
589.583	13603.144
589.712	13560.500
589.840	13529.163
589.968	13525.567
590.096	13582.087
590.224	13577.067
590.352	13593.452
590.480	13540.375
590.608	13534.327
590.737	13555.433
590.865	13603.356
590.993	13458.981
591.121	13509.356
591.249	13482.721
591.377	13494.394
591.505	13586.173
591.633	13465.471
591.762	13453.548
591.890	13478.173
592.018	13591.163
592.146	13518.894
592.274	13506.500
592.402	13490.567
592.530	13694.375
592.658	13570.067
592.787	13592.798
592.915	13605.962
593.043	13503.808
593.171	13582.788
593.299	13598.952
593.427	13589.817
593.555	13568.346
593.683	13626.942
593.812	13616.154
593.940	13638.048
594.068	13673.077
594.196	13639.087
594.324	13652.067
594.452	13898.048
594.580	13749.308
594.708	13790.721
594.837	13740.462
594.965	13867.798
595.093	13779.308
595.221	13898.769
595.349	13868.375
595.477	13930.856
595.605	13898.269
595.733	13921.837
595.862	13923.567
595.990	13968.413
596.118	14002.067
596.246	14051.548
596.374	13988.769
596.502	14030.202
596.630	13989.288
596.758	13999.673
596.887	14020.308
597.015	13985.894
597.143	14008.154
597.271	14000.750
597.399	14078.337
597.527	14024.087
597.655	14040.471
597.783	14076.798
597.912	14026.385
598.040	14078.615
598.168	14029.510
598.296	14003.404
598.424	14188.029
598.552	13987.202
598.680	14021.837
598.808	14051.529
598.937	13991.490
599.065	13997.990
599.193	14014.212
599.321	14019.865
599.449	13966.010
599.577	13936.240
599.705	13942.692
599.833	13894.731
599.962	13881.692
600.090	13902.923
600.218	13909.010
600.346	13908.462
600.474	13885.952
600.602	13833.173
600.730	13826.365
600.858	13846.625
600.987	13959.413
601.115	13831.788
601.243	13893.885
601.371	13977.279
601.499	13966.346
601.627	13905.327
601.755	13877.769
601.883	13909.519
602.012	13835.202
602.140	13952.327
602.268	13922.673
602.396	14049.404
602.524	13939.221
602.652	14008.817
602.780	14037.577
602.908	14059.413
603.037	14114.673
603.165	14091.577
603.293	14128.942
603.421	14191.750
603.549	14184.875
603.677	14214.471
603.805	14248.288
603.933	14226.817
604.062	14350.163
604.190	14398.683
604.318	14380.365
604.446	14394.038
604.574	14445.423
604.702	14487.683
604.830	14462.981
604.958	14465.077
605.087	14555.740
605.215	14638.625
605.343	14721.846
605.471	14684.769
605.599	14687.962
605.727	14791.952
605.855	14787.798
605.983	14777.010
606.112	14851.692
606.240	14857.096
606.368	14848.269
606.496	14815.452
606.624	14935.702
606.752	14856.442
606.880	14916.913
607.008	14831.135
607.137	14883.260
607.265	14950.510
607.393	14894.837
607.521	14985.048
607.649	14880.827
607.777	14894.644
607.905	14948.327
608.033	14854.202
608.162	14887.529
608.290	14839.952
608.418	14960.500
608.546	14907.971
608.674	14957.846
608.802	14855.096
608.930	14858.163
609.058	14784.548
609.187	14826.663
609.315	14776.346
609.443	14768.337
609.571	14877.962
609.699	14726.673
609.827	14830.000
609.955	14756.269
610.083	14700.337
610.212	14692.779
610.340	14656.308
610.468	14666.404
610.596	14657.740
610.724	14601.067
610.852	14690.740
610.980	14658.250
611.108	14598.375
611.237	14596.510
611.365	14592.087
611.493	14590.750
611.621	14566.106
611.749	14641.067
611.877	14636.462
612.005	14589.587
612.133	14675.067
612.262	14638.538
612.390	14697.365
612.518	14651.442
612.646	14633.135
612.774	14694.048
612.902	14738.529
613.030	14686.885
613.158	14695.029
613.287	14748.048
613.415	14656.337
613.543	14707.731
613.671	14741.529
613.799	14726.692
613.927	14805.163
614.055	14815.971
614.183	14832.885
614.312	14799.808
614.440	14968.135
614.568	14916.990
614.696	14924.087
614.824	14938.260
614.952	15011.433
615.080	14967.481
615.208	15050.404
615.337	15151.875
615.465	15030.202
615.593	15127.490
615.721	15067.096
615.849	15179.260
615.977	15144.048
616.105	15146.500
616.233	15205.010
616.362	15253.769
616.490	15222.740
616.618	15251.663
616.746	15375.769
616.874	15327.510
617.002	15368.413
617.130	15339.481
617.258	15305.817
617.387	15365.385
617.515	15404.990
617.643	15345.356
617.771	15432.240
617.899	15321.663
618.027	15427.817
618.155	15450.769
618.283	15413.423
618.412	15456.394
618.540	15498.519
618.668	15433.971
618.796	15464.712
618.924	15430.346
619.052	15446.471
619.180	15445.769
619.308	15397.317
619.437	15414.202
619.565	15408.942
619.693	15390.385
619.821	15443.760
619.949	15350.404
620.077	15391.750
620.205	15423.654
620.333	15406.231
620.462	15367.067
620.590	15389.942
620.718	15374.769
620.846	15392.885
620.974	15392.654
621.102	15402.500
621.230	15390.760
621.358	15499.154
621.487	15325.971
621.615	15370.615
621.743	15267.279
621.871	15345.808
621.999	15284.442
622.127	15293.442
622.255	15267.154
622.383	15221.202
622.512	15201.346
622.640	15215.788
622.768	15260.240
622.896	15298.394
623.024	15238.087
623.152	15216.933
623.280	15298.058
623.408	15181.635
623.537	15250.615
623.665	15153.490
623.793	15236.587
623.921	15176.548
624.049	15155.971
624.177	15201.933
624.305	15121.096
624.433	15170.923
624.562	15140.269
624.690	15268.269
624.818	15041.683
624.946	15119.990
625.074	15073.471
625.202	15072.500
625.330	15077.865
625.458	15192.712
625.587	15067.327
625.715	15118.308
625.843	15070.529
625.971	15096.981
626.099	15100.144
626.227	15054.202
626.355	14994.029
626.483	15090.010
626.612	15025.385
626.740	15068.337
626.868	15018.673
626.996	15053.481
627.124	15049.452
627.252	15021.577
627.380	15042.490
627.508	14988.058
627.637	15038.962
627.765	15034.279
627.893	15047.394
628.021	15108.971
628.149	15040.692
628.277	15125.240
628.405	15052.567
628.533	15048.394
628.662	15064.356
628.790	15147.231
628.918	15131.231
629.046	15234.471
629.174	15080.625
629.302	15120.702
629.430	15089.163
629.558	15119.500
629.687	15130.990
629.815	15189.385
629.943	15253.971
630.071	15217.010
630.199	15166.817
630.327	15220.279
630.455	15277.423
630.583	15244.971
630.712	15246.558
630.840	15271.048
630.968	15239.154
631.096	15255.192
631.224	15292.221
631.352	15424.760
631.480	15294.952
631.608	15465.269
631.737	15278.731
631.865	15418.115
631.993	15382.000
632.121	15541.933
632.249	15382.154
632.377	15347.894
632.505	15352.163
632.633	15419.288
632.762	15356.750
632.890	15356.548
633.018	15387.990
633.146	15334.135
633.274	15309.865
633.402	15380.231
633.530	15310.519
633.658	15315.673
633.787	15318.548
633.915	15271.663
634.043	15305.856
634.171	15309.058
634.299	15285.192
634.427	15240.615
634.555	15512.442
634.683	15264.250
634.812	15254.106
634.940	15227.337
635.068	15195.038
635.196	15153.837
635.324	15151.673
635.452	15144.279
635.580	15224.269
635.708	15094.260
635.837	15107.183
635.965	15105.385
636.093	15091.212
636.221	15012.375
636.349	14919.885
636.477	14944.337
636.605	14979.394
636.733	14932.202
636.862	14915.058
636.990	14898.837
637.118	14891.279
637.246	14820.471
637.374	14964.067
637.502	14755.644
637.630	14728.894
637.758	14755.433
637.887	14669.731
638.015	14793.644
638.143	14716.702
638.271	14614.346
638.399	14683.346
638.527	14588.462
638.655	14584.173
638.783	14582.894
638.912	14632.404
639.040	14526.308
639.168	14487.692
639.296	14481.702
639.424	14519.587
639.552	14446.500
639.680	14487.192
639.808	14433.606
639.937	14414.788
640.065	14389.106
640.193	14377.058
640.321	14456.702
640.449	14410.452
640.577	14320.500
640.705	14352.404
640.833	14370.798
640.962	14437.356
641.090	14285.865
641.218	14305.038
641.346	14389.606
641.474	14323.163
641.602	14290.990
641.730	14304.529
641.858	14258.510
641.987	14276.519
642.115	14472.529
642.243	14291.337
642.371	14405.538
642.499	14301.577
642.627	14350.875
642.755	14273.462
642.883	14285.683
643.012	14280.865
643.140	14334.462
643.268	14324.519
643.396	14269.567
643.524	14263.394
643.652	14374.385
643.780	14256.221
643.908	14261.000
644.037	14362.433
644.165	14340.240
644.293	14445.067
644.421	14218.385
644.549	14288.808
644.677	14305.942
644.805	14244.567
644.933	14242.500
645.062	14287.538
645.190	14404.519
645.318	14288.365
645.446	14217.452
645.574	14200.990
645.702	14232.942
645.830	14217.308
645.958	14178.692
646.087	14169.000
646.215	14145.298
646.343	14142.212
646.471	14293.894
646.599	14138.231
646.727	14154.808
646.855	14109.769
646.983	14099.115
647.112	14176.038
647.240	14079.106
647.368	14117.529
647.496	14093.558
647.624	14096.683
647.752	14057.471
647.880	14007.769
648.008	14052.913
648.137	14064.654
648.265	14002.644
648.393	14036.221
648.521	13933.519
648.649	14064.365
648.777	13993.029
648.905	13893.221
649.033	13968.260
649.162	13831.029
649.290	13792.913
649.418	13783.144
649.546	13925.846
649.674	13748.010
649.802	13721.856
649.930	13718.856
650.058	13663.288
650.187	13657.413
650.315	13613.356
650.443	13648.433
650.571	13583.817
650.699	13552.865
650.827	13550.202
650.955	13513.106
651.083	13572.740
651.212	13469.029
651.340	13471.865
651.468	13399.173
651.596	13428.692
651.724	13400.231
651.852	13357.529
651.980	13363.885
652.108	13323.577
652.237	13330.788
652.365	13253.404
652.493	13254.490
652.621	13209.125
652.749	13221.000
652.877	13201.750
653.005	13225.106
653.133	13159.192
653.262	13083.096
653.390	13090.933
653.518	13221.135
653.646	13089.875
653.774	13024.962
653.902	13145.413
654.030	13054.663
654.158	12986.933
654.287	13023.154
654.415	12967.375
654.543	13008.529
654.671	12951.404
654.799	12942.519
654.927	12938.981
655.055	12826.510
655.183	12862.125
655.312	12841.048
655.440	12817.779
655.568	12832.769
655.696	12841.029
655.824	12811.048
655.952	12781.452
656.080	12694.913
656.208	12726.183
656.337	12744.827
656.465	12923.750
656.593	12675.000
656.721	12743.567
656.849	12766.788
656.977	12568.394
657.105	12644.548
657.233	12665.298
657.362	12650.471
657.490	12625.163
657.618	12570.077
657.746	12565.827
657.874	12496.596
658.002	12478.144
658.130	12438.029
658.258	12402.990
658.387	12399.173
658.515	12362.567
658.643	12354.971
658.771	12412.308
658.899	12309.894
659.027	12327.154
659.155	12305.490
659.283	12246.885
659.412	12269.673
659.540	12268.923
659.668	12292.875
659.796	12333.356
659.924	12280.952
660.052	12351.096
660.180	12263.481
660.308	12317.048
660.437	12290.712
660.565	12225.096
660.693	12115.317
660.821	12334.644
660.949	12115.702
661.077	12151.760
661.205	12286.904
661.333	12141.538
661.462	12102.587
661.590	12220.221
661.718	12102.394
661.846	12103.010
661.974	12041.106
662.102	12044.692
662.230	12078.981
662.358	11962.308
662.487	12027.692
662.615	12018.394
662.743	12011.317
662.871	11974.144
662.999	11900.404
663.127	11909.625
663.255	11912.942
663.383	12008.760
663.512	11840.500
663.640	11868.712
663.768	11914.942
663.896	11847.433
664.024	11853.615
664.152	11801.106
664.280	11841.423
664.408	11815.317
664.537	11811.721
664.665	11786.615
664.793	11793.404
664.921	11767.298
665.049	11810.038
665.177	11730.865
665.305	11774.490
665.433	11727.856
665.562	11880.510
665.690	11743.817
665.818	11889.817
665.946	11640.481
666.074	11689.481
666.202	11643.933
666.330	11676.240
666.458	12023.240
666.587	11630.519
666.715	11609.740
666.843	11569.856
666.971	11599.029
667.099	11629.096
667.227	11648.048
667.355	11625.192
667.483	11509.471
667.612	11578.250
667.740	11536.673
667.868	11529.260
667.996	11510.154
668.124	11554.596
668.252	11624.663
668.380	11469.837
668.508	11505.750
668.637	11412.606
668.765	11499.288
668.893	11437.260
669.021	11377.779
669.149	11475.115
669.277	11362.538
669.405	11462.692
669.533	11439.731
669.662	11349.856
669.790	11358.760
669.918	11350.462
670.046	11467.654
670.174	11257.096
670.302	11272.183
670.430	11223.452
670.558	11267.538
670.687	11381.683
670.815	11199.462
670.943	11226.625
671.071	11110.846
671.199	11113.125
671.327	11101.625
671.455	11123.875
671.583	11097.192
671.712	11034.798
671.840	11128.606
671.968	11213.269
672.096	11148.971
672.224	10979.942
672.352	10994.385
672.480	10936.067
672.608	10931.212
672.737	10899.548
672.865	10834.394
672.993	10845.779
673.121	10851.240
673.249	10803.760
673.377	10753.933
673.505	10756.221
673.633	10798.558
673.762	10705.490
673.890	10730.635
674.018	10730.327
674.146	10663.712
674.274	10663.288
674.402	10709.125
674.530	10646.702
674.658	10549.740
674.787	10580.173
674.915	10690.308
675.043	10554.865
675.171	10542.558
675.299	10470.702
675.427	10438.317
675.555	10446.087
675.683	10477.058
675.812	10415.433
675.940	10395.173
676.068	10348.433
676.196	10421.317
676.324	10313.288
676.452	10252.663
676.580	10227.385
676.708	10252.327
676.837	10243.462
676.965	10315.106
677.093	10351.096
677.221	10197.817
677.349	10130.106
677.477	10199.952
677.605	10060.933
677.733	10084.096
677.862	10073.894
677.990	10084.731
678.118	10082.337
678.246	10040.654
678.374	10088.019
678.502	9991.952
678.630	9948.981
678.758	9956.875
678.887	10074.067
679.015	9867.346
679.143	9817.962
679.271	9844.231
679.399	9847.375
679.527	9843.702
679.655	9905.644
679.783	9782.596
679.912	9768.798
680.040	9946.135
680.168	9735.269
680.296	9759.135
680.424	9719.558
680.552	9666.365
680.680	9662.346
680.808	9619.894
680.937	9606.452
681.065	9670.606
681.193	9581.365
681.321	9558.779
681.449	9590.875
681.577	9570.365
681.705	9543.596
681.833	9567.413
681.962	9537.365
682.090	9487.635
682.218	9502.038
682.346	9511.654
682.474	9461.067
682.602	9443.510
682.730	9519.394
682.858	9432.885
682.987	9427.173
683.115	9448.615
683.243	9383.798
683.371	9413.308
683.499	9364.490
683.627	9390.981
683.755	9361.683
683.883	9368.000
684.012	9361.981
684.140	9314.606
684.268	9325.269
684.396	9374.856
684.524	9322.577
684.652	9312.144
684.780	9308.413
684.908	9309.240
685.037	9305.144
685.165	9294.538
685.293	9330.462
685.421	9268.913
685.549	9286.740
685.677	9239.538
685.805	9247.500
685.933	9207.481
686.062	9233.625
686.190	9173.115
686.318	9193.615
686.446	9152.096
686.574	9120.385
686.702	9198.673
686.830	9085.452
686.958	9177.846
687.087	9077.394
687.215	9110.183
687.343	9090.865
687.471	9258.769
687.599	9048.250
687.727	9020.827
687.855	9021.413
687.983	8952.019
688.112	9050.481
688.240	8994.519
688.368	8996.615
688.496	8976.750
688.624	8942.433
688.752	9071.288
688.880	8929.413
689.008	8897.856
689.137	8912.952
689.265	8828.683
689.393	8856.077
689.521	8847.913
689.649	8933.558
689.777	8850.029
689.905	8930.846
690.033	8759.692
690.162	8784.837
690.290	8811.000
690.418	8735.038
690.546	8788.048
690.674	8781.644
690.802	8786.663
690.930	8713.904
691.058	8714.875
691.187	8661.058
691.315	8631.702
691.443	8627.971
691.571	8628.904
691.699	8604.471
691.827	8567.673
691.955	8573.096
692.083	8537.240
692.212	8528.885
692.340	8542.404
692.468	8560.413
692.596	8515.779
692.724	8436.548
692.852	8493.202
692.980	8498.500
693.108	8514.702
693.237	8396.673
693.365	8378.019
693.493	8363.442
693.621	8356.490
693.749	8281.000
693.877	8373.981
694.005	8277.788
694.133	8242.702
694.262	8305.548
694.390	8206.433
694.518	8216.702
694.646	8193.019
694.774	8139.567
694.902	8110.548
695.030	8150.433
695.158	8098.981
695.287	8083.327
695.415	8091.942
695.543	8062.423
695.671	8020.481
695.799	8101.260
695.927	7998.760
696.055	8001.625
696.183	7940.615
696.312	8100.587
696.440	7946.798
696.568	7941.240
696.696	7819.173
696.824	7784.615
696.952	7794.981
697.080	7826.346
697.208	7733.481
697.337	7752.115
697.465	7702.077
697.593	7666.913
697.721	7784.779
697.849	7672.125
697.977	7680.269
698.105	7723.385
698.233	7647.692
698.362	7569.490
698.490	7697.452
698.618	7525.673
698.746	7491.394
698.874	7575.913
699.002	7517.173
699.130	7525.913
699.258	7480.558
699.387	7428.615
699.515	7472.221
699.643	7497.365
699.771	7527.962
699.899	7365.202
700.027	7354.490
700.155	7415.192
700.283	7254.529
700.412	7274.346
700.540	7321.923
700.668	7337.260
700.796	7233.750
700.924	7259.913
701.052	7270.356
701.180	7250.462
701.308	7129.308
701.437	7124.625
701.565	7110.750
701.693	7158.981
701.821	7304.577
701.949	7054.327
702.077	7080.202
702.205	7114.471
702.333	7016.298
702.462	6976.990
702.590	7012.413
702.718	6936.192
702.846	7100.154
702.974	6910.471
703.102	6888.683
703.230	6902.654
703.358	6863.221
703.487	6831.837
703.615	6819.192
703.743	6769.183
703.871	6745.423
703.999	6746.375
704.127	6699.135
704.255	6686.962
704.383	6701.962
704.512	6729.635
704.640	6710.058
704.768	6737.163
704.896	6592.490
705.024	6528.942
705.152	6574.413
705.280	6609.923
705.408	6507.750
705.537	6442.577
705.665	6486.087
705.793	6424.885
705.921	6428.442
706.049	6377.635
706.177	6404.019
706.305	6316.231
706.433	6375.096
706.562	6348.846
706.690	6351.231
706.818	6320.500
706.946	6267.029
707.074	6213.317
707.202	6180.606
707.330	6198.962
707.458	6161.317
707.587	6128.981
707.715	6177.538
707.843	6160.846
707.971	6141.750
708.099	6049.288
708.227	6041.279
708.355	6034.942
708.483	6013.077
708.612	6030.260
708.740	5972.288
708.868	5976.231
708.996	6011.385
709.124	6004.183
709.252	5943.683
709.380	5945.760
709.508	5886.212
709.637	5891.846
709.765	5854.769
709.893	5887.413
710.021	5807.625
710.149	5914.538
710.277	5772.163
710.405	5787.471
710.533	5747.962
710.662	5740.125
710.790	5835.327
710.918	5697.106
711.046	5726.596
711.174	5684.635
711.302	5703.221
711.430	5663.865
711.558	5653.721
711.687	5645.510
711.815	5592.038
711.943	5595.346
712.071	5557.538
712.199	5582.202
712.327	5622.077
712.455	5505.385
712.583	5657.942
712.712	5515.606
712.840	5544.183
712.968	5467.587
713.096	5469.808
713.224	5428.952
713.352	5443.019
713.480	5370.606
713.608	5368.087
713.737	5319.240
713.865	5386.269
713.993	5338.587
714.121	5334.721
714.249	5282.413
714.377	5268.077
714.505	5248.538
714.633	5288.240
714.762	5251.413
714.890	5225.596
715.018	5214.519
715.146	5226.346
715.274	5154.269
715.402	5147.221
715.530	5130.913
715.658	5185.817
715.787	5107.192
715.915	5190.385
716.043	5085.798
716.171	5185.740
716.299	5028.712
716.427	5076.587
716.555	5034.115
716.683	5006.856
716.812	4990.490
716.940	4972.548
717.068	4934.115
717.196	5055.019
717.324	4943.308
717.452	4933.490
717.580	4963.721
717.708	4868.644
717.837	4884.875
717.965	4902.663
718.093	4840.240
718.221	4875.173
718.349	4903.817
718.477	4793.019
718.605	4872.163
718.733	4779.058
718.862	4788.798
718.990	4743.865
719.118	4781.962
719.246	4690.481
719.374	4665.913
719.502	4732.356
719.630	4783.808
719.758	4640.144
719.887	4605.644
720.015	4629.327
720.143	4657.077
720.271	4548.644
720.399	4616.115
720.527	4550.337
720.655	4604.221
720.783	4532.952
720.912	4481.894
721.040	4494.250
721.168	4487.394
721.296	4414.644
721.424	4421.885
721.552	4397.106
