sample11u_at_750.00nm_cut_at_1060.50Y_01.dat
19.06.2023
11:16:56
cut middle at Y: 1060.50
top cursor: 1109 down cursor: 1012 mean of: 97 lines , 2560 datapoints
wavelength(nm)	intensity[arb. units]
585.996	1776.969
586.124	1710.000
586.252	1718.546
586.380	1710.392
586.508	1709.485
586.637	1718.876
586.765	1719.773
586.893	1722.557
587.021	1725.072
587.149	1737.546
587.277	1734.979
587.405	1746.093
587.533	1729.000
587.662	1731.155
587.790	1735.577
587.918	1746.021
588.046	1740.196
588.174	1752.948
588.302	1742.897
588.430	1739.814
588.558	1752.526
588.687	1767.381
588.815	1777.505
588.943	1765.165
589.071	1754.835
589.199	1773.351
589.327	1762.093
589.455	1758.773
589.583	1771.742
589.712	1766.340
589.840	1771.804
589.968	1777.299
590.096	1774.649
590.224	1774.835
590.352	1777.804
590.480	1781.979
590.608	1790.454
590.737	1778.959
590.865	1786.969
590.993	1797.464
591.121	1776.526
591.249	1804.495
591.377	1784.887
591.505	1793.155
591.633	1791.742
591.762	1814.598
591.890	1806.763
592.018	1803.258
592.146	1801.041
592.274	1797.010
592.402	1790.134
592.530	1800.495
592.658	1818.474
592.787	1816.278
592.915	1809.268
593.043	1817.567
593.171	1819.722
593.299	1829.990
593.427	1825.093
593.555	1819.227
593.683	1817.278
593.812	1821.979
593.940	1846.928
594.068	1832.113
594.196	1850.495
594.324	1844.433
594.452	1874.216
594.580	1873.567
594.708	1876.845
594.837	1861.979
594.965	1873.278
595.093	1877.649
595.221	1869.629
595.349	1875.299
595.477	1879.784
595.605	1882.165
595.733	1922.825
595.862	1913.546
595.990	1897.495
596.118	1901.258
596.246	1918.309
596.374	1916.052
596.502	1924.443
596.630	1938.247
596.758	1934.309
596.887	1934.340
597.015	1939.062
597.143	1926.041
597.271	1944.392
597.399	1927.763
597.527	1947.165
597.655	1938.526
597.783	1930.619
597.912	1950.289
598.040	1950.165
598.168	1948.103
598.296	1932.361
598.424	1935.505
598.552	1941.536
598.680	1931.804
598.808	1952.330
598.937	1966.608
599.065	1942.423
599.193	1930.093
599.321	1930.412
599.449	1951.732
599.577	1937.423
599.705	1945.247
599.833	1955.753
599.962	1946.268
600.090	1952.918
600.218	1953.299
600.346	1959.454
600.474	1956.526
600.602	1964.629
600.730	1970.608
600.858	1972.041
600.987	1963.515
601.115	1953.670
601.243	1952.464
601.371	1977.289
601.499	1979.866
601.627	1970.247
601.755	1971.546
601.883	1981.948
602.012	2000.835
602.140	1999.402
602.268	1997.289
602.396	2009.237
602.524	2009.072
602.652	2021.938
602.780	2025.990
602.908	2042.320
603.037	2054.072
603.165	2041.948
603.293	2056.454
603.421	2056.897
603.549	2051.485
603.677	2076.010
603.805	2070.711
603.933	2100.691
604.062	2092.237
604.190	2116.814
604.318	2099.588
604.446	2119.866
604.574	2109.948
604.702	2120.598
604.830	2129.186
604.958	2142.093
605.087	2160.546
605.215	2152.887
605.343	2170.546
605.471	2171.258
605.599	2160.196
605.727	2177.165
605.855	2184.546
605.983	2175.588
606.112	2203.351
606.240	2208.082
606.368	2206.216
606.496	2203.948
606.624	2215.773
606.752	2193.258
606.880	2208.938
607.008	2227.010
607.137	2231.649
607.265	2221.825
607.393	2230.237
607.521	2234.588
607.649	2225.433
607.777	2222.732
607.905	2238.577
608.033	2237.701
608.162	2228.938
608.290	2242.969
608.418	2249.557
608.546	2243.041
608.674	2265.763
608.802	2242.206
608.930	2260.196
609.058	2257.268
609.187	2254.876
609.315	2243.649
609.443	2248.722
609.571	2246.515
609.699	2256.763
609.827	2237.990
609.955	2250.753
610.083	2253.536
610.212	2259.340
610.340	2265.371
610.468	2262.918
610.596	2266.309
610.724	2252.732
610.852	2267.412
610.980	2253.124
611.108	2281.247
611.237	2268.918
611.365	2261.928
611.493	2284.113
611.621	2281.701
611.749	2304.897
611.877	2304.619
612.005	2295.464
612.133	2275.794
612.262	2307.856
612.390	2316.031
612.518	2319.175
612.646	2316.000
612.774	2326.608
612.902	2327.845
613.030	2332.464
613.158	2351.763
613.287	2350.361
613.415	2367.010
613.543	2365.330
613.671	2369.608
613.799	2378.887
613.927	2367.258
614.055	2386.825
614.183	2390.278
614.312	2393.278
614.440	2401.268
614.568	2404.845
614.696	2419.216
614.824	2437.649
614.952	2426.629
615.080	2439.897
615.208	2457.680
615.337	2459.588
615.465	2445.423
615.593	2462.381
615.721	2463.330
615.849	2470.845
615.977	2474.588
616.105	2473.969
616.233	2483.794
616.362	2516.887
616.490	2483.732
616.618	2493.825
616.746	2503.619
616.874	2528.515
617.002	2512.103
617.130	2542.691
617.258	2565.680
617.387	2522.887
617.515	2517.979
617.643	2522.093
617.771	2551.649
617.899	2548.113
618.027	2517.361
618.155	2575.969
618.283	2528.072
618.412	2547.794
618.540	2550.309
618.668	2546.897
618.796	2550.082
618.924	2626.515
619.052	2567.701
619.180	2549.979
619.308	2573.784
619.437	2590.144
619.565	2569.113
619.693	2569.454
619.821	2601.753
619.949	2580.175
620.077	2598.763
620.205	2616.330
620.333	2600.722
620.462	2614.619
620.590	2660.299
620.718	2617.464
620.846	2642.278
620.974	2647.155
621.102	2636.866
621.230	2632.278
621.358	2682.186
621.487	2612.010
621.615	2639.216
621.743	2661.062
621.871	2649.041
621.999	2681.979
622.127	2668.423
622.255	2661.474
622.383	2668.134
622.512	2671.062
622.640	2782.619
622.768	2667.546
622.896	2665.299
623.024	2665.588
623.152	2768.351
623.280	2719.536
623.408	2659.515
623.537	2680.309
623.665	2670.526
623.793	2708.918
623.921	2681.536
624.049	2670.258
624.177	2681.876
624.305	2720.948
624.433	2718.031
624.562	2706.495
624.690	2740.082
624.818	2739.794
624.946	2851.670
625.074	2726.969
625.202	2697.938
625.330	2723.361
625.458	2774.660
625.587	2713.289
625.715	2765.082
625.843	2845.412
625.971	2752.052
626.099	2741.165
626.227	2738.722
626.355	2748.371
626.483	2832.505
626.612	2743.000
626.740	2750.289
626.868	2798.082
626.996	2744.196
627.124	2753.155
627.252	2751.175
627.380	2801.464
627.508	2768.124
627.637	2785.124
627.765	2811.052
627.893	2815.784
628.021	2810.340
628.149	2809.443
628.277	2833.268
628.405	2873.990
628.533	2805.876
628.662	2861.918
628.790	2842.546
628.918	2845.938
629.046	2892.804
629.174	2849.918
629.302	2925.856
629.430	2845.804
629.558	2883.608
629.687	2879.330
629.815	2897.763
629.943	2937.021
630.071	2926.371
630.199	2921.320
630.327	2936.557
630.455	2919.381
630.583	2976.969
630.712	2946.794
630.840	2966.711
630.968	2976.423
631.096	2936.959
631.224	2961.031
631.352	2995.165
631.480	2992.969
631.608	3012.165
631.737	3059.680
631.865	3174.186
631.993	3031.485
632.121	3133.505
632.249	3102.763
632.377	3069.649
632.505	3047.433
632.633	3029.784
632.762	3072.175
632.890	3135.959
633.018	3035.639
633.146	3062.608
633.274	3082.227
633.402	3113.773
633.530	3043.247
633.658	3172.144
633.787	3056.639
633.915	3129.206
634.043	3076.021
634.171	3088.856
634.299	3123.876
634.427	3150.753
634.555	3204.557
634.683	3120.670
634.812	3119.773
634.940	3105.825
635.068	3092.753
635.196	3130.866
635.324	3103.021
635.452	3180.381
635.580	3159.320
635.708	3106.454
635.837	3172.918
635.965	3149.588
636.093	3146.351
636.221	3134.268
636.349	3167.340
636.477	3109.959
636.605	3260.680
636.733	3111.577
636.862	3119.887
636.990	3165.227
637.118	3187.052
637.246	3154.144
637.374	3192.959
637.502	3148.340
637.630	3118.155
637.758	3159.072
637.887	3115.247
638.015	3164.619
638.143	3144.392
638.271	3166.155
638.399	3181.546
638.527	3153.433
638.655	3138.320
638.783	3249.485
638.912	3203.577
639.040	3194.794
639.168	3206.474
639.296	3150.237
639.424	3295.959
639.552	3176.918
639.680	3211.691
639.808	3228.175
639.937	3177.691
640.065	3172.392
640.193	3257.784
640.321	3201.825
640.449	3256.423
640.577	3270.505
640.705	3221.753
640.833	3321.010
640.962	3243.773
641.090	3214.753
641.218	3225.825
641.346	3276.299
641.474	3265.175
641.602	3239.526
641.730	3252.340
641.858	3244.464
641.987	3290.680
642.115	3326.206
642.243	3317.309
642.371	3349.691
642.499	3312.588
642.627	3349.082
642.755	3350.670
642.883	3368.361
643.012	3334.763
643.140	3344.000
643.268	3367.814
643.396	3352.598
643.524	3457.969
643.652	3400.979
643.780	3374.351
643.908	3371.763
644.037	3504.691
644.165	3415.856
644.293	3471.639
644.421	3374.856
644.549	3488.062
644.677	3460.691
644.805	3464.052
644.933	3413.670
645.062	3471.526
645.190	3503.670
645.318	3527.660
645.446	3467.330
645.574	3473.722
645.702	3516.072
645.830	3615.289
645.958	3483.608
646.087	3600.773
646.215	3481.887
646.343	3613.320
646.471	3600.680
646.599	3564.021
646.727	3518.206
646.855	3546.948
646.983	3545.948
647.112	3535.732
647.240	3653.722
647.368	3582.722
647.496	3586.247
647.624	3518.474
647.752	3554.526
647.880	3554.237
648.008	3555.928
648.137	3567.082
648.265	3563.196
648.393	3561.330
648.521	3555.165
648.649	3619.866
648.777	3589.227
648.905	3557.711
649.033	3606.660
649.162	3573.577
649.290	3565.423
649.418	3589.680
649.546	3654.082
649.674	3646.361
649.802	3594.753
649.930	3691.021
650.058	3532.340
650.187	3596.845
650.315	3557.546
650.443	3633.763
650.571	3597.443
650.699	3571.969
650.827	3566.536
650.955	3596.041
651.083	3648.701
651.212	3639.402
651.340	3671.052
651.468	3610.299
651.596	3624.062
651.724	3608.825
651.852	3604.557
651.980	3588.753
652.108	3684.155
652.237	3634.206
652.365	3674.866
652.493	3582.258
652.621	3617.753
652.749	3679.670
652.877	3595.216
653.005	3651.299
653.133	3600.938
653.262	3653.278
653.390	3604.701
653.518	3780.887
653.646	3636.351
653.774	3778.959
653.902	3680.392
654.030	3632.866
654.158	3637.918
654.287	3637.959
654.415	3664.907
654.543	3657.887
654.671	3711.814
654.799	3666.485
654.927	3634.103
655.055	3622.722
655.183	3661.856
655.312	3661.763
655.440	3665.794
655.568	3639.711
655.696	3746.268
655.824	3747.825
655.952	3662.753
656.080	3631.515
656.208	3763.423
656.337	3696.134
656.465	3730.588
656.593	3717.969
656.721	3703.691
656.849	3762.474
656.977	3671.052
657.105	3687.021
657.233	3662.155
657.362	3691.515
657.490	3694.546
657.618	3708.907
657.746	3694.990
657.874	3675.289
658.002	3646.423
658.130	3669.835
658.258	3678.784
658.387	3670.546
658.515	3653.113
658.643	3711.165
658.771	3690.289
658.899	3686.722
659.027	3681.753
659.155	3682.010
659.283	3807.361
659.412	3691.093
659.540	3764.031
659.668	3683.021
659.796	3733.247
659.924	3725.722
660.052	3715.134
660.180	3684.732
660.308	3724.392
660.437	3711.629
660.565	3696.041
660.693	3674.412
660.821	3738.753
660.949	3693.381
661.077	3707.021
661.205	3736.021
661.333	3669.320
661.462	3744.691
661.590	3761.144
661.718	3819.144
661.846	3795.670
661.974	3811.546
662.102	3723.887
662.230	3771.155
662.358	3721.021
662.487	3715.485
662.615	3719.021
662.743	3717.567
662.871	3697.876
662.999	3677.856
663.127	3706.515
663.255	3796.691
663.383	3850.660
663.512	3714.021
663.640	3754.165
663.768	3734.299
663.896	3713.052
664.024	3778.320
664.152	3727.536
664.280	3771.031
664.408	3758.175
664.537	3780.722
664.665	3704.876
664.793	3700.351
664.921	3702.619
665.049	3773.165
665.177	3738.948
665.305	3762.155
665.433	3758.010
665.562	3753.907
665.690	3755.598
665.818	3914.443
665.946	3763.196
666.074	3747.887
666.202	3742.103
666.330	3755.124
666.458	3764.608
666.587	3709.289
666.715	3759.041
666.843	3715.536
666.971	3727.289
667.099	3775.093
667.227	3762.278
667.355	3774.093
667.483	3749.237
667.612	3748.031
667.740	3786.546
667.868	3790.928
667.996	3750.093
668.124	3762.309
668.252	3777.165
668.380	3720.794
668.508	3759.082
668.637	3777.082
668.765	3762.155
668.893	3799.887
669.021	3701.649
669.149	3795.938
669.277	3764.794
669.405	3755.247
669.533	3758.990
669.662	3903.186
669.790	3715.433
669.918	3814.567
670.046	3779.268
670.174	3801.340
670.302	3765.000
670.430	3734.794
670.558	3797.742
670.687	3758.639
670.815	3828.742
670.943	3681.619
671.071	3689.794
671.199	3680.103
671.327	3668.412
671.455	3678.299
671.583	3667.474
671.712	3761.299
671.840	3686.948
671.968	3707.536
672.096	3701.742
672.224	3629.691
672.352	3724.052
672.480	3628.124
672.608	3623.206
672.737	3601.784
672.865	3675.680
672.993	3594.990
673.121	3553.969
673.249	3579.588
673.377	3525.144
673.505	3549.959
673.633	3571.866
673.762	3526.010
673.890	3521.186
674.018	3674.392
674.146	3525.763
674.274	3529.938
674.402	3663.175
674.530	3521.567
674.658	3527.062
674.787	3477.454
674.915	3507.485
675.043	3506.784
675.171	3507.361
675.299	3445.639
675.427	3459.969
675.555	3428.804
675.683	3451.175
675.812	3429.918
675.940	3399.165
676.068	3416.660
676.196	3391.691
676.324	3406.577
676.452	3391.010
676.580	3352.938
676.708	3375.794
676.837	3398.010
676.965	3362.907
677.093	3385.753
677.221	3335.216
677.349	3339.959
677.477	3399.000
677.605	3320.918
677.733	3376.052
677.862	3292.041
677.990	3292.526
678.118	3294.918
678.246	3297.186
678.374	3304.887
678.502	3263.412
678.630	3245.392
678.758	3223.113
678.887	3290.969
679.015	3225.680
679.143	3218.237
679.271	3207.227
679.399	3227.773
679.527	3239.959
679.655	3212.289
679.783	3204.278
679.912	3193.784
680.040	3240.577
680.168	3189.557
680.296	3181.155
680.424	3155.639
680.552	3188.876
680.680	3219.938
680.808	3125.701
680.937	3114.577
681.065	3147.959
681.193	3119.103
681.321	3114.938
681.449	3120.474
681.577	3085.392
681.705	3100.598
681.833	3099.701
681.962	3065.598
682.090	3191.227
682.218	3069.825
682.346	3070.948
682.474	3063.866
682.602	3046.196
682.730	3093.093
682.858	3023.155
682.987	3070.381
683.115	3051.031
683.243	3049.969
683.371	3007.454
683.499	2999.515
683.627	3050.546
683.755	3065.041
683.883	3109.330
684.012	3013.825
684.140	2986.856
684.268	2981.784
684.396	2996.361
684.524	2989.062
684.652	3023.072
684.780	3021.588
684.908	3022.124
685.037	2952.598
685.165	2946.691
685.293	2984.990
685.421	3022.464
685.549	2916.784
685.677	2922.928
685.805	3061.979
685.933	2951.928
686.062	2912.175
686.190	2908.567
686.318	2963.763
686.446	2914.814
686.574	2883.412
686.702	2962.567
686.830	2862.887
686.958	2891.103
687.087	2865.938
687.215	2884.216
687.343	2843.082
687.471	2900.052
687.599	2826.825
687.727	2970.536
687.855	2841.443
687.983	2849.072
688.112	2890.711
688.240	2789.175
688.368	2767.340
688.496	2795.309
688.624	2819.247
688.752	2790.258
688.880	2772.979
689.008	2768.278
689.137	2740.392
689.265	2706.402
689.393	2718.134
689.521	2708.052
689.649	2731.629
689.777	2692.464
689.905	2715.577
690.033	2664.691
690.162	2672.351
690.290	2674.134
690.418	2648.722
690.546	2657.206
690.674	2689.216
690.802	2631.753
690.930	2629.619
691.058	2645.979
691.187	2622.763
691.315	2599.907
691.443	2631.320
691.571	2578.536
691.699	2571.423
691.827	2611.443
691.955	2552.340
692.083	2546.247
692.212	2571.113
692.340	2548.701
692.468	2522.072
692.596	2524.742
692.724	2533.763
692.852	2492.639
692.980	2495.577
693.108	2475.443
693.237	2483.258
693.365	2461.340
693.493	2451.454
693.621	2435.361
693.749	2438.990
693.877	2416.680
694.005	2409.948
694.133	2422.784
694.262	2394.639
694.390	2390.454
694.518	2372.010
694.646	2370.206
694.774	2380.887
694.902	2340.124
695.030	2387.856
695.158	2327.330
695.287	2342.784
695.415	2309.144
695.543	2311.639
695.671	2295.052
695.799	2273.330
695.927	2274.258
696.055	2268.691
696.183	2293.454
696.312	2261.505
696.440	2239.876
696.568	2238.062
696.696	2227.361
696.824	2216.031
696.952	2218.268
697.080	2186.804
697.208	2203.784
697.337	2174.948
697.465	2181.371
697.593	2171.814
697.721	2170.856
697.849	2163.113
697.977	2146.773
698.105	2157.433
698.233	2137.701
698.362	2115.072
698.490	2120.619
698.618	2117.268
698.746	2082.804
698.874	2090.732
699.002	2093.567
699.130	2081.041
699.258	2084.814
699.387	2061.887
699.515	2029.598
699.643	2049.866
699.771	2030.608
699.899	2039.495
700.027	2012.588
700.155	2004.969
700.283	2007.000
700.412	1973.711
700.540	1979.175
700.668	1980.701
700.796	1967.835
700.924	1938.856
701.052	1934.072
701.180	1931.402
701.308	1910.155
701.437	1905.206
701.565	1902.557
701.693	1888.557
701.821	1885.474
701.949	1869.938
702.077	1871.979
702.205	1854.691
702.333	1859.969
702.462	1841.825
702.590	1831.299
702.718	1837.474
702.846	1802.103
702.974	1809.835
703.102	1803.392
703.230	1787.155
703.358	1768.010
703.487	1757.247
703.615	1759.536
703.743	1731.134
703.871	1733.918
703.999	1723.134
704.127	1713.876
704.255	1710.845
704.383	1699.371
704.512	1686.062
704.640	1673.165
704.768	1664.649
704.896	1653.021
705.024	1648.227
705.152	1619.433
705.280	1627.959
705.408	1617.351
705.537	1610.938
705.665	1601.505
705.793	1592.608
705.921	1589.320
706.049	1579.103
706.177	1558.629
706.305	1554.351
706.433	1555.567
706.562	1548.691
706.690	1529.278
706.818	1524.371
706.946	1521.557
707.074	1513.165
707.202	1499.186
707.330	1494.825
707.458	1489.588
707.587	1478.938
707.715	1481.309
707.843	1466.103
707.971	1461.526
708.099	1443.454
708.227	1430.969
708.355	1433.361
708.483	1432.041
708.612	1428.021
708.740	1411.753
708.868	1413.134
708.996	1395.804
709.124	1389.990
709.252	1384.907
709.380	1375.918
709.508	1354.959
709.637	1365.134
709.765	1360.433
709.893	1345.289
710.021	1342.227
710.149	1335.299
710.277	1328.660
710.405	1323.773
710.533	1320.175
710.662	1311.753
710.790	1317.464
710.918	1305.784
711.046	1308.649
711.174	1297.928
711.302	1282.175
711.430	1274.289
711.558	1279.938
711.687	1269.959
711.815	1263.495
711.943	1264.948
712.071	1256.000
712.199	1239.938
712.327	1237.680
712.455	1236.876
712.583	1227.918
712.712	1217.134
712.840	1222.660
712.968	1207.010
713.096	1196.835
713.224	1198.588
713.352	1202.907
713.480	1190.423
713.608	1186.567
713.737	1174.144
713.865	1164.897
713.993	1164.598
714.121	1163.010
714.249	1165.907
714.377	1155.371
714.505	1156.134
714.633	1144.763
714.762	1132.165
714.890	1134.660
715.018	1127.237
715.146	1122.608
715.274	1121.124
715.402	1110.309
715.530	1115.289
715.658	1096.619
715.787	1105.237
715.915	1098.433
716.043	1087.979
716.171	1082.866
716.299	1079.186
716.427	1079.701
716.555	1068.825
716.683	1060.309
716.812	1062.897
716.940	1063.485
717.068	1040.371
717.196	1047.619
717.324	1044.021
717.452	1027.454
717.580	1030.866
717.708	1024.258
717.837	1027.794
717.965	1016.856
718.093	1014.247
718.221	1001.959
718.349	1003.320
718.477	997.309
718.605	990.392
718.733	980.340
718.862	981.722
718.990	978.990
719.118	969.072
719.246	960.309
719.374	962.515
719.502	962.773
719.630	949.010
719.758	947.598
719.887	939.825
720.015	947.175
720.143	933.969
720.271	938.392
720.399	920.567
720.527	923.330
720.655	912.351
720.783	901.052
720.912	901.649
721.040	902.969
721.168	894.649
721.296	888.835
721.424	880.753
721.552	879.876
721.680	880.351
721.808	876.113
721.937	870.649
722.065	857.227
722.193	850.557
722.321	857.062
722.449	846.804
722.577	853.474
722.705	835.495
722.833	843.959
722.962	826.206
723.090	819.588
723.218	813.351
723.346	810.918
723.474	808.268
723.602	800.052
723.730	803.907
723.858	797.701
723.987	789.371
724.115	780.907
724.243	778.485
724.371	783.557
724.499	781.505
724.627	774.371
724.755	759.680
724.883	768.804
725.012	754.237
725.140	749.773
725.268	757.062
725.396	745.485
725.524	744.660
725.652	729.918
725.780	729.000
725.908	723.052
726.037	715.804
726.165	717.773
726.293	709.701
726.421	709.701
726.549	709.691
726.677	699.093
726.805	698.876
726.933	699.598
727.062	696.660
727.190	688.619
727.318	684.577
727.446	684.670
727.574	682.206
727.702	677.979
727.830	670.144
727.958	667.464
728.087	662.361
728.215	658.433
728.343	665.165
728.471	650.660
728.599	654.072
728.727	646.474
728.855	651.866
728.983	641.082
729.112	638.412
729.240	637.670
729.368	632.680
729.496	632.412
729.624	629.660
729.752	618.804
729.880	620.216
730.008	625.340
730.137	616.546
730.265	608.753
730.393	607.804
730.521	611.691
730.649	603.474
730.777	598.804
730.905	596.670
731.033	592.485
731.162	594.134
731.290	589.969
731.418	582.505
731.546	594.196
731.674	579.351
731.802	575.814
731.930	577.423
732.058	575.021
732.187	570.691
732.315	563.485
732.443	573.134
732.571	557.660
732.699	564.474
732.827	555.454
732.955	556.526
733.083	549.753
733.212	555.031
733.340	545.701
733.468	551.546
733.596	545.392
733.724	541.309
733.852	541.402
733.980	532.804
734.108	536.495
734.237	534.464
734.365	527.959
734.493	531.268
734.621	522.546
734.749	530.753
734.877	520.979
735.005	519.247
735.133	518.959
735.262	519.412
735.390	511.289
735.518	513.454
735.646	503.660
735.774	503.670
735.902	503.000
736.030	504.010
736.158	498.825
