Dunkelspektrum_at_750.00nm_cut_at_1184.50Y_01.dat
03.07.2023
10:42:14
cut middle at Y: 1184.50
top cursor: 1231 down cursor: 1138 mean of: 93 lines , 2560 datapoints
wavelength(nm)	intensity[arb. units]
585.996	192.989
586.124	157.935
586.252	167.333
586.380	166.355
586.508	149.065
586.637	162.215
586.765	150.957
586.893	154.602
587.021	155.505
587.149	159.376
587.277	164.280
587.405	155.075
587.533	156.871
587.662	151.946
587.790	148.366
587.918	154.376
588.046	148.624
588.174	159.667
588.302	144.129
588.430	157.570
588.558	147.516
588.687	150.065
588.815	166.624
588.943	156.140
589.071	157.613
589.199	148.366
589.327	148.935
589.455	157.817
589.583	153.108
589.712	147.183
589.840	146.387
589.968	153.011
590.096	151.559
590.224	153.118
590.352	174.774
590.480	151.505
590.608	145.892
590.737	163.581
590.865	150.097
590.993	148.624
591.121	152.882
591.249	145.989
591.377	151.570
591.505	147.409
591.633	152.226
591.762	146.204
591.890	154.935
592.018	156.516
592.146	152.785
592.274	154.355
592.402	141.172
592.530	145.882
592.658	143.075
592.787	154.043
592.915	164.462
593.043	136.054
593.171	148.086
593.299	140.312
593.427	149.495
593.555	145.806
593.683	143.054
593.812	140.086
593.940	142.022
594.068	153.398
594.196	142.656
594.324	144.473
594.452	146.409
594.580	140.075
594.708	144.914
594.837	147.527
594.965	154.484
595.093	138.452
595.221	142.839
595.349	145.258
595.477	147.462
595.605	155.882
595.733	143.290
595.862	145.860
595.990	148.204
596.118	141.828
596.246	146.720
596.374	158.032
596.502	160.108
596.630	144.473
596.758	148.247
596.887	139.860
597.015	151.172
597.143	150.129
597.271	149.559
597.399	140.441
597.527	155.290
597.655	139.538
597.783	143.441
597.912	142.118
598.040	148.183
598.168	145.462
598.296	139.688
598.424	150.280
598.552	142.054
598.680	139.828
598.808	138.903
598.937	142.452
599.065	158.656
599.193	148.763
599.321	143.355
599.449	140.398
599.577	139.688
599.705	147.946
599.833	148.978
599.962	142.785
600.090	141.269
600.218	145.677
600.346	144.484
600.474	135.839
600.602	142.978
600.730	147.624
600.858	146.237
600.987	135.516
601.115	140.978
601.243	145.753
601.371	147.333
601.499	136.441
601.627	138.656
601.755	141.226
601.883	141.366
602.012	145.140
602.140	141.323
602.268	143.839
602.396	138.978
602.524	148.763
602.652	141.667
602.780	138.462
602.908	140.237
603.037	152.785
603.165	138.032
603.293	138.796
603.421	163.387
603.549	146.602
603.677	156.011
603.805	133.968
603.933	143.645
604.062	143.204
604.190	143.892
604.318	139.882
604.446	135.645
604.574	148.290
604.702	134.699
604.830	139.645
604.958	136.946
605.087	145.000
605.215	140.527
605.343	159.108
605.471	153.645
605.599	140.323
605.727	146.054
605.855	143.860
605.983	154.710
606.112	151.699
606.240	137.258
606.368	139.505
606.496	146.581
606.624	139.387
606.752	136.538
606.880	140.409
607.008	135.978
607.137	150.194
607.265	141.581
607.393	143.624
607.521	153.000
607.649	153.710
607.777	139.473
607.905	145.688
608.033	138.753
608.162	143.656
608.290	147.118
608.418	146.312
608.546	150.043
608.674	140.194
608.802	141.215
608.930	141.892
609.058	134.505
609.187	140.710
609.315	140.538
609.443	142.172
609.571	150.022
609.699	138.667
609.827	147.656
609.955	142.656
610.083	138.462
610.212	151.710
610.340	137.753
610.468	143.204
610.596	147.796
610.724	136.968
610.852	141.570
610.980	147.312
611.108	142.935
611.237	146.581
611.365	142.763
611.493	136.280
611.621	140.430
611.749	137.172
611.877	147.409
612.005	139.333
612.133	136.677
612.262	150.247
612.390	142.527
612.518	140.677
612.646	134.161
612.774	141.656
612.902	140.172
613.030	161.538
613.158	140.484
613.287	145.484
613.415	138.925
613.543	153.054
613.671	136.441
613.799	138.312
613.927	140.753
614.055	145.570
614.183	134.688
614.312	139.387
614.440	138.215
614.568	140.688
614.696	139.118
614.824	134.591
614.952	159.559
615.080	136.269
615.208	146.237
615.337	146.828
615.465	139.366
615.593	138.204
615.721	134.247
615.849	147.097
615.977	141.914
616.105	136.882
616.233	135.753
616.362	147.527
616.490	147.763
616.618	142.935
616.746	140.301
616.874	145.011
617.002	139.280
617.130	138.118
617.258	134.269
617.387	137.903
617.515	144.108
617.643	132.957
617.771	138.871
617.899	139.258
618.027	142.140
618.155	140.559
618.283	141.796
618.412	138.462
618.540	135.946
618.668	138.366
618.796	148.935
618.924	140.376
619.052	133.817
619.180	154.452
619.308	139.796
619.437	139.054
619.565	133.441
619.693	134.839
619.821	138.333
619.949	137.398
620.077	135.237
620.205	137.548
620.333	134.430
620.462	136.527
620.590	155.000
620.718	134.656
620.846	136.011
620.974	162.237
621.102	153.871
621.230	158.495
621.358	140.183
621.487	135.591
621.615	142.258
621.743	142.763
621.871	136.366
621.999	133.753
622.127	151.075
622.255	143.624
622.383	137.151
622.512	138.839
622.640	138.194
622.768	140.172
622.896	136.237
623.024	139.903
623.152	129.989
623.280	145.538
623.408	142.000
623.537	140.086
623.665	141.344
623.793	154.022
623.921	138.280
624.049	140.978
624.177	139.129
624.305	144.645
624.433	140.108
624.562	138.366
624.690	140.183
624.818	157.925
624.946	145.656
625.074	139.301
625.202	135.527
625.330	139.710
625.458	155.280
625.587	139.409
625.715	138.957
625.843	136.043
625.971	142.452
626.099	142.645
626.227	139.677
626.355	139.892
626.483	145.376
626.612	136.118
626.740	133.849
626.868	142.774
626.996	140.258
627.124	138.355
627.252	159.355
627.380	135.054
627.508	140.968
627.637	138.183
627.765	134.172
627.893	140.226
628.021	134.269
628.149	137.591
628.277	140.376
628.405	145.785
628.533	136.839
628.662	137.516
628.790	134.366
628.918	139.043
629.046	130.699
629.174	148.032
629.302	135.022
629.430	144.484
629.558	153.968
629.687	133.688
629.815	138.097
629.943	137.258
630.071	142.323
630.199	144.194
630.327	152.763
630.455	148.161
630.583	158.430
630.712	135.774
630.840	141.495
630.968	138.183
631.096	131.290
631.224	134.118
631.352	152.409
631.480	150.946
631.608	140.968
631.737	136.634
631.865	138.989
631.993	136.753
632.121	154.968
632.249	146.742
632.377	146.527
632.505	137.796
632.633	144.871
632.762	138.022
632.890	142.720
633.018	137.699
633.146	146.559
633.274	155.935
633.402	135.839
633.530	136.796
633.658	138.731
633.787	150.355
633.915	144.828
634.043	139.108
634.171	135.409
634.299	140.871
634.427	139.140
634.555	141.699
634.683	145.849
634.812	142.398
634.940	137.258
635.068	127.817
635.196	135.108
635.324	143.484
635.452	141.118
635.580	135.742
635.708	133.301
635.837	138.065
635.965	141.720
636.093	141.505
636.221	145.591
636.349	134.742
636.477	138.914
636.605	164.108
636.733	143.978
636.862	144.333
636.990	147.312
637.118	146.441
637.246	147.258
637.374	135.806
637.502	142.903
637.630	142.957
637.758	138.151
637.887	135.538
638.015	136.054
638.143	194.161
638.271	135.495
638.399	139.387
638.527	141.753
638.655	141.946
638.783	138.613
638.912	150.280
639.040	136.194
639.168	137.720
639.296	138.892
639.424	138.140
639.552	141.043
639.680	139.645
639.808	126.495
639.937	148.538
640.065	135.011
640.193	134.516
640.321	130.581
640.449	142.032
640.577	132.215
640.705	150.914
640.833	138.710
640.962	147.194
641.090	143.914
641.218	141.849
641.346	142.183
641.474	140.473
641.602	138.753
641.730	143.172
641.858	134.398
641.987	131.269
642.115	138.097
642.243	142.989
642.371	139.086
642.499	132.172
642.627	145.280
642.755	133.860
642.883	134.570
643.012	138.452
643.140	139.946
643.268	132.742
643.396	132.602
643.524	141.882
643.652	134.065
643.780	135.742
643.908	141.570
644.037	138.247
644.165	136.699
644.293	138.441
644.421	142.161
644.549	137.161
644.677	139.118
644.805	138.258
644.933	137.817
645.062	135.441
645.190	142.355
645.318	137.645
645.446	142.129
645.574	134.215
645.702	142.344
645.830	137.043
645.958	143.828
646.087	137.946
646.215	139.441
646.343	143.323
646.471	137.172
646.599	131.796
646.727	140.269
646.855	141.774
646.983	127.097
647.112	151.613
647.240	138.129
647.368	132.602
647.496	149.215
647.624	141.871
647.752	134.968
647.880	143.441
648.008	136.720
648.137	147.806
648.265	136.710
648.393	131.849
648.521	131.645
648.649	134.968
648.777	135.688
648.905	138.344
649.033	154.871
649.162	133.075
649.290	136.828
649.418	134.602
649.546	131.022
649.674	137.258
649.802	147.581
649.930	143.226
650.058	138.925
650.187	138.258
650.315	139.301
650.443	134.247
650.571	135.409
650.699	134.946
650.827	137.699
650.955	135.978
651.083	140.258
651.212	157.043
651.340	130.946
651.468	133.151
651.596	136.570
651.724	138.161
651.852	148.140
651.980	145.409
652.108	145.269
652.237	144.527
652.365	135.505
652.493	130.989
652.621	152.398
652.749	133.204
652.877	149.473
653.005	136.710
653.133	136.129
653.262	135.688
653.390	139.516
653.518	134.301
653.646	135.570
653.774	137.527
653.902	136.151
654.030	154.989
654.158	136.290
654.287	139.946
654.415	141.387
654.543	148.495
654.671	137.108
654.799	138.398
654.927	136.731
655.055	142.946
655.183	134.731
655.312	143.925
655.440	138.624
655.568	137.645
655.696	138.892
655.824	139.043
655.952	137.871
656.080	131.882
656.208	139.247
656.337	152.054
656.465	169.613
656.593	138.226
656.721	131.828
656.849	145.376
656.977	137.462
657.105	141.978
657.233	140.581
657.362	138.645
657.490	133.968
657.618	133.204
657.746	143.387
657.874	132.140
658.002	143.538
658.130	138.548
658.258	141.237
658.387	139.806
658.515	128.656
658.643	142.656
658.771	141.591
658.899	142.237
659.027	141.903
659.155	135.613
659.283	138.516
659.412	130.892
659.540	136.871
659.668	145.280
659.796	137.172
659.924	139.366
660.052	148.172
660.180	136.505
660.308	134.935
660.437	142.828
660.565	137.645
660.693	139.796
660.821	137.763
660.949	140.237
661.077	137.194
661.205	135.903
661.333	127.409
661.462	141.129
661.590	137.849
661.718	153.645
661.846	133.011
661.974	141.484
662.102	142.290
662.230	152.290
662.358	134.688
662.487	144.172
662.615	138.774
662.743	138.183
662.871	139.194
662.999	134.301
663.127	139.323
663.255	143.204
663.383	142.731
663.512	138.161
663.640	135.226
663.768	136.957
663.896	146.258
664.024	135.011
664.152	145.849
664.280	137.043
664.408	141.473
664.537	140.011
664.665	153.806
664.793	146.366
664.921	135.774
665.049	136.183
665.177	130.613
665.305	139.022
665.433	134.839
665.562	150.301
665.690	136.215
665.818	139.269
665.946	141.043
666.074	153.430
666.202	137.258
666.330	138.043
666.458	657.925
666.587	145.495
666.715	150.398
666.843	142.839
666.971	142.817
667.099	137.473
667.227	148.763
667.355	146.613
667.483	136.097
667.612	138.968
667.740	131.355
667.868	142.849
667.996	130.742
668.124	138.882
668.252	142.667
668.380	155.591
668.508	146.398
668.637	137.925
668.765	135.548
668.893	140.366
669.021	148.441
669.149	133.828
669.277	139.118
669.405	144.140
669.533	141.419
669.662	142.301
669.790	143.602
669.918	132.032
670.046	135.839
670.174	135.860
670.302	140.204
670.430	143.312
670.558	139.097
670.687	138.731
670.815	131.763
670.943	142.194
671.071	134.204
671.199	129.505
671.327	140.882
671.455	164.688
671.583	135.129
671.712	136.022
671.840	142.161
671.968	138.022
672.096	137.247
672.224	132.032
672.352	138.269
672.480	145.591
672.608	135.806
672.737	139.043
672.865	141.151
672.993	142.022
673.121	137.194
673.249	130.935
673.377	135.301
673.505	134.043
673.633	141.785
673.762	132.645
673.890	136.742
674.018	134.409
674.146	137.989
674.274	132.667
674.402	135.430
674.530	145.075
674.658	136.484
674.787	140.312
674.915	140.366
675.043	138.118
675.171	147.570
675.299	142.667
675.427	134.914
675.555	140.946
675.683	146.763
675.812	140.624
675.940	149.925
676.068	141.355
676.196	135.688
676.324	151.151
676.452	144.914
676.580	136.645
676.708	146.538
676.837	140.946
676.965	143.366
677.093	138.215
677.221	139.624
677.349	138.387
677.477	160.140
677.605	135.548
677.733	145.376
677.862	130.591
677.990	131.237
678.118	141.581
678.246	148.710
678.374	140.301
678.502	142.054
678.630	138.624
678.758	156.548
678.887	141.602
679.015	142.753
679.143	136.043
679.271	151.484
679.399	147.946
679.527	135.731
679.655	135.065
679.783	136.742
679.912	143.323
680.040	140.774
680.168	139.172
680.296	142.656
680.424	137.774
680.552	146.409
680.680	152.161
680.808	142.968
680.937	134.989
681.065	133.462
681.193	137.656
681.321	137.796
681.449	137.774
681.577	138.763
681.705	144.914
681.833	136.763
681.962	145.570
682.090	144.849
682.218	132.978
682.346	133.387
682.474	145.215
682.602	138.613
682.730	139.129
682.858	134.398
682.987	161.161
683.115	138.441
683.243	136.183
683.371	137.409
683.499	132.355
683.627	137.323
683.755	133.226
683.883	144.527
684.012	143.065
684.140	142.677
684.268	138.398
684.396	139.871
684.524	134.441
684.652	141.441
684.780	137.656
684.908	149.935
685.037	135.452
685.165	139.452
685.293	148.785
685.421	143.118
685.549	136.817
685.677	150.366
685.805	134.344
685.933	139.108
686.062	143.151
686.190	173.258
686.318	136.473
686.446	138.591
686.574	135.129
686.702	137.656
686.830	137.355
686.958	157.495
687.087	141.860
687.215	134.290
687.343	135.968
687.471	147.462
687.599	138.688
687.727	137.817
687.855	139.194
687.983	137.613
688.112	138.527
688.240	144.161
688.368	137.140
688.496	142.968
688.624	142.161
688.752	133.333
688.880	138.409
689.008	140.495
689.137	143.043
689.265	133.022
689.393	145.430
689.521	147.505
689.649	151.376
689.777	135.935
689.905	136.602
690.033	138.237
690.162	138.290
690.290	139.312
690.418	132.796
690.546	142.247
690.674	149.194
690.802	145.301
690.930	134.409
691.058	139.570
691.187	135.086
691.315	152.409
691.443	151.043
691.571	138.000
691.699	138.828
691.827	138.806
691.955	140.430
692.083	143.548
692.212	131.785
692.340	142.570
692.468	141.312
692.596	143.258
692.724	134.387
692.852	147.817
692.980	136.753
693.108	134.376
693.237	146.118
693.365	141.785
693.493	137.688
693.621	136.398
693.749	142.516
693.877	142.957
694.005	147.409
694.133	144.097
694.262	149.387
694.390	137.022
694.518	133.097
694.646	139.860
694.774	137.086
694.902	138.817
695.030	137.011
695.158	136.989
695.287	134.871
695.415	157.860
695.543	131.376
695.671	140.656
695.799	143.323
695.927	146.376
696.055	135.720
696.183	133.172
696.312	138.624
696.440	142.301
696.568	148.462
696.696	146.258
696.824	141.849
696.952	135.376
697.080	150.258
697.208	136.914
697.337	133.763
697.465	136.602
697.593	143.677
697.721	138.387
697.849	140.570
697.977	136.269
698.105	143.634
698.233	134.161
698.362	146.183
698.490	165.731
698.618	140.785
698.746	139.645
698.874	135.796
699.002	139.054
699.130	143.968
699.258	159.505
699.387	138.054
699.515	141.774
699.643	146.656
699.771	147.161
699.899	138.226
700.027	150.935
700.155	134.215
700.283	133.258
700.412	149.237
700.540	138.989
700.668	152.323
700.796	139.312
700.924	143.871
701.052	137.097
701.180	154.785
701.308	130.849
701.437	142.280
701.565	141.688
701.693	131.204
701.821	146.871
701.949	141.290
702.077	132.172
702.205	135.237
702.333	144.204
702.462	149.989
702.590	139.108
702.718	136.054
702.846	142.151
702.974	143.796
703.102	137.516
703.230	139.839
703.358	130.462
703.487	144.151
703.615	138.022
703.743	133.204
703.871	139.312
703.999	137.462
704.127	135.398
704.255	137.925
704.383	131.957
704.512	139.237
704.640	135.817
704.768	130.903
704.896	139.280
705.024	147.344
705.152	144.118
705.280	134.892
705.408	134.785
705.537	132.989
705.665	141.172
705.793	145.430
705.921	131.602
706.049	133.398
706.177	130.398
706.305	137.624
706.433	139.151
706.562	137.591
706.690	127.290
706.818	136.817
706.946	140.892
707.074	141.710
707.202	138.387
707.330	135.699
707.458	151.366
707.587	133.054
707.715	137.108
707.843	146.527
707.971	136.108
708.099	137.742
708.227	137.387
708.355	145.957
708.483	139.323
708.612	140.323
708.740	134.054
708.868	137.957
708.996	129.409
709.124	149.204
709.252	137.656
709.380	165.699
709.508	135.548
709.637	143.344
709.765	140.710
709.893	141.624
710.021	134.516
710.149	143.903
710.277	139.043
710.405	148.000
710.533	140.419
710.662	132.720
710.790	141.323
710.918	130.118
711.046	140.946
711.174	136.516
711.302	131.860
711.430	135.022
711.558	138.269
711.687	140.376
711.815	132.860
711.943	136.484
712.071	131.806
712.199	140.968
712.327	153.398
712.455	144.688
712.583	135.935
712.712	145.118
712.840	142.946
712.968	133.161
713.096	143.667
713.224	147.043
713.352	142.860
713.480	138.484
713.608	132.785
713.737	132.527
713.865	135.645
713.993	138.312
714.121	146.183
714.249	135.237
714.377	144.613
714.505	142.118
714.633	140.344
714.762	135.882
714.890	149.763
715.018	136.344
715.146	142.075
715.274	142.258
715.402	138.892
715.530	138.194
715.658	138.516
715.787	140.817
715.915	145.183
716.043	135.280
716.171	134.914
716.299	133.269
716.427	134.892
716.555	149.613
716.683	139.602
716.812	143.785
716.940	144.849
717.068	138.677
717.196	139.204
717.324	147.806
717.452	133.409
717.580	149.462
717.708	131.172
717.837	132.753
717.965	130.462
718.093	138.828
718.221	138.419
718.349	131.634
718.477	140.366
718.605	127.333
718.733	131.011
718.862	145.667
718.990	130.677
719.118	148.559
719.246	141.387
719.374	140.473
719.502	140.323
719.630	137.172
719.758	138.925
719.887	138.000
720.015	138.312
720.143	153.075
720.271	140.118
720.399	141.667
720.527	136.731
720.655	134.462
720.783	134.075
720.912	134.957
721.040	132.710
721.168	143.527
721.296	130.344
721.424	153.538
721.552	138.344
721.680	132.022
721.808	156.473
721.937	135.634
722.065	142.280
722.193	138.054
722.321	141.763
722.449	141.763
722.577	135.667
722.705	139.968
722.833	139.355
722.962	134.720
723.090	136.419
723.218	126.968
723.346	142.000
723.474	135.645
723.602	135.323
723.730	142.505
723.858	136.720
723.987	150.903
724.115	141.452
724.243	146.871
724.371	137.731
724.499	138.280
724.627	135.548
724.755	136.011
724.883	134.839
725.012	145.505
725.140	152.000
725.268	134.505
725.396	132.957
725.524	143.871
725.652	153.301
725.780	132.753
725.908	142.839
726.037	135.043
726.165	143.000
726.293	141.667
726.421	136.978
726.549	137.645
726.677	146.419
726.805	138.925
726.933	150.441
727.062	151.688
727.190	136.925
727.318	133.581
727.446	145.237
727.574	136.796
727.702	134.613
727.830	151.978
727.958	135.344
728.087	133.333
728.215	142.387
728.343	140.602
728.471	142.366
728.599	138.828
728.727	131.968
728.855	153.860
728.983	134.151
729.112	133.839
729.240	136.065
729.368	144.849
729.496	151.140
729.624	147.731
729.752	140.237
729.880	141.226
730.008	138.065
730.137	139.548
730.265	148.043
730.393	151.419
730.521	145.376
730.649	151.742
730.777	146.667
730.905	160.258
731.033	136.774
731.162	146.688
731.290	152.753
731.418	152.140
731.546	153.871
731.674	158.462
731.802	143.688
731.930	161.667
732.058	137.742
732.187	151.387
732.315	161.581
732.443	146.226
732.571	142.151
732.699	130.849
732.827	145.806
732.955	143.280
733.083	145.065
733.212	139.409
733.340	150.860
733.468	147.065
733.596	145.914
733.724	143.140
733.852	146.785
733.980	145.452
734.108	138.946
734.237	142.118
734.365	136.237
734.493	137.720
734.621	140.914
734.749	147.430
734.877	140.312
735.005	152.495
