sample9v_at_750.00nm_cut_at_1060.50Y_01.dat
19.06.2023
11:14:50
cut middle at Y: 1060.50
top cursor: 1109 down cursor: 1012 mean of: 97 lines , 2560 datapoints
wavelength(nm)	intensity[arb. units]
585.996	756.423
586.124	730.938
586.252	716.433
586.380	721.216
586.508	716.175
586.637	727.732
586.765	730.010
586.893	726.454
587.021	730.423
587.149	730.041
587.277	725.505
587.405	733.639
587.533	730.361
587.662	737.464
587.790	731.722
587.918	731.351
588.046	739.649
588.174	736.619
588.302	737.660
588.430	730.763
588.558	730.289
588.687	730.660
588.815	739.351
588.943	743.526
589.071	731.247
589.199	735.433
589.327	731.031
589.455	727.062
589.583	729.567
589.712	733.660
589.840	735.485
589.968	736.546
590.096	739.340
590.224	739.505
590.352	741.711
590.480	737.371
590.608	737.948
590.737	729.155
590.865	734.165
590.993	740.773
591.121	745.392
591.249	737.175
591.377	733.041
591.505	738.897
591.633	735.814
591.762	739.381
591.890	737.206
592.018	742.278
592.146	746.649
592.274	744.835
592.402	744.392
592.530	741.897
592.658	743.340
592.787	742.876
592.915	743.113
593.043	745.000
593.171	744.835
593.299	752.763
593.427	746.804
593.555	750.639
593.683	744.598
593.812	751.381
593.940	748.165
594.068	756.938
594.196	751.887
594.324	758.165
594.452	763.918
594.580	757.206
594.708	765.907
594.837	768.443
594.965	772.485
595.093	780.948
595.221	767.990
595.349	779.000
595.477	776.505
595.605	786.577
595.733	787.763
595.862	776.186
595.990	778.124
596.118	782.031
596.246	792.052
596.374	783.196
596.502	794.536
596.630	795.289
596.758	787.247
596.887	792.361
597.015	791.577
597.143	788.031
597.271	785.412
597.399	789.784
597.527	783.835
597.655	794.031
597.783	789.330
597.912	785.557
598.040	795.144
598.168	790.206
598.296	790.340
598.424	792.876
598.552	790.134
598.680	788.464
598.808	792.062
598.937	799.969
599.065	791.598
599.193	788.515
599.321	778.794
599.449	791.866
599.577	784.794
599.705	781.680
599.833	796.021
599.962	779.423
600.090	792.031
600.218	785.557
600.346	790.124
600.474	789.567
600.602	792.113
600.730	788.495
600.858	790.763
600.987	801.361
601.115	784.268
601.243	787.454
601.371	787.866
601.499	801.134
601.627	787.278
601.755	796.010
601.883	804.711
602.012	803.763
602.140	799.588
602.268	804.247
602.396	805.577
602.524	797.124
602.652	812.649
602.780	815.155
602.908	813.103
603.037	817.082
603.165	825.082
603.293	832.268
603.421	828.320
603.549	818.845
603.677	825.608
603.805	827.763
603.933	833.165
604.062	829.062
604.190	841.732
604.318	844.918
604.446	849.062
604.574	840.165
604.702	844.680
604.830	844.845
604.958	848.866
605.087	862.443
605.215	859.835
605.343	850.485
605.471	872.402
605.599	862.464
605.727	863.144
605.855	861.330
605.983	866.763
606.112	872.268
606.240	875.309
606.368	879.567
606.496	872.495
606.624	868.856
606.752	867.309
606.880	880.495
607.008	876.979
607.137	869.093
607.265	872.062
607.393	885.268
607.521	881.515
607.649	867.814
607.777	869.979
607.905	882.887
608.033	883.237
608.162	881.546
608.290	881.763
608.418	883.701
608.546	876.557
608.674	881.454
608.802	878.835
608.930	887.412
609.058	884.629
609.187	870.361
609.315	887.753
609.443	880.258
609.571	887.485
609.699	868.113
609.827	874.907
609.955	869.588
610.083	867.608
610.212	862.876
610.340	871.072
610.468	875.381
610.596	873.412
610.724	880.010
610.852	874.649
610.980	877.402
611.108	876.515
611.237	876.608
611.365	872.814
611.493	875.392
611.621	877.660
611.749	882.918
611.877	892.289
612.005	875.897
612.133	875.433
612.262	880.155
612.390	886.165
612.518	891.485
612.646	883.959
612.774	886.485
612.902	889.711
613.030	894.299
613.158	898.969
613.287	892.732
613.415	901.155
613.543	905.948
613.671	906.041
613.799	901.784
613.927	904.433
614.055	903.052
614.183	910.784
614.312	902.113
614.440	905.742
614.568	915.845
614.696	921.124
614.824	913.433
614.952	921.309
615.080	922.320
615.208	925.763
615.337	920.660
615.465	918.464
615.593	930.093
615.721	938.330
615.849	925.361
615.977	937.165
616.105	919.629
616.233	935.990
616.362	938.979
616.490	929.227
616.618	930.454
616.746	934.278
616.874	934.567
617.002	945.227
617.130	945.144
617.258	935.608
617.387	937.794
617.515	939.691
617.643	947.845
617.771	937.423
617.899	936.330
618.027	938.165
618.155	937.753
618.283	945.567
618.412	940.753
618.540	944.825
618.668	949.351
618.796	949.371
618.924	941.856
619.052	945.691
619.180	945.134
619.308	954.835
619.437	944.289
619.565	950.557
619.693	941.351
619.821	940.165
619.949	945.990
620.077	942.928
620.205	941.227
620.333	941.474
620.462	949.175
620.590	952.021
620.718	951.804
620.846	939.546
620.974	944.309
621.102	948.546
621.230	945.454
621.358	946.598
621.487	944.216
621.615	945.000
621.743	944.464
621.871	939.021
621.999	939.608
622.127	938.361
622.255	935.639
622.383	947.144
622.512	948.763
622.640	936.258
622.768	940.598
622.896	945.814
623.024	936.196
623.152	945.794
623.280	933.443
623.408	936.773
623.537	943.948
623.665	948.515
623.793	936.021
623.921	937.464
624.049	937.876
624.177	937.278
624.305	939.330
624.433	942.794
624.562	943.722
624.690	937.515
624.818	929.670
624.946	935.113
625.074	933.814
625.202	942.804
625.330	931.763
625.458	930.732
625.587	936.680
625.715	927.186
625.843	926.175
625.971	936.258
626.099	938.216
626.227	930.289
626.355	928.196
626.483	938.784
626.612	928.856
626.740	930.866
626.868	932.041
626.996	931.649
627.124	937.134
627.252	927.371
627.380	931.732
627.508	932.082
627.637	927.340
627.765	938.825
627.893	942.794
628.021	934.577
628.149	941.897
628.277	931.701
628.405	941.928
628.533	935.773
628.662	940.814
628.790	940.567
628.918	935.186
629.046	942.072
629.174	933.794
629.302	940.464
629.430	943.577
629.558	935.454
629.687	945.268
629.815	938.639
629.943	947.278
630.071	941.907
630.199	940.897
630.327	942.742
630.455	941.392
630.583	945.959
630.712	952.351
630.840	939.567
630.968	953.598
631.096	957.495
631.224	946.897
631.352	942.340
631.480	950.948
631.608	958.381
631.737	953.299
631.865	952.598
631.993	955.546
632.121	953.454
632.249	948.732
632.377	946.010
632.505	944.196
632.633	947.866
632.762	946.134
632.890	953.918
633.018	959.072
633.146	946.082
633.274	955.557
633.402	942.454
633.530	935.021
633.658	951.186
633.787	941.495
633.915	948.515
634.043	943.093
634.171	939.691
634.299	944.485
634.427	941.753
634.555	946.969
634.683	944.546
634.812	932.660
634.940	943.897
635.068	935.897
635.196	922.990
635.324	948.340
635.452	942.247
635.580	931.557
635.708	922.845
635.837	932.412
635.965	927.216
636.093	923.423
636.221	923.381
636.349	921.866
636.477	915.010
636.605	921.907
636.733	913.031
636.862	908.639
636.990	915.093
637.118	922.227
637.246	907.938
637.374	907.845
637.502	907.732
637.630	905.763
637.758	911.454
637.887	911.680
638.015	901.155
638.143	914.021
638.271	894.258
638.399	902.381
638.527	894.340
638.655	895.928
638.783	903.258
638.912	892.794
639.040	896.474
639.168	891.866
639.296	893.660
639.424	898.021
639.552	896.763
639.680	888.722
639.808	896.464
639.937	883.722
640.065	895.979
640.193	889.804
640.321	890.680
640.449	891.423
640.577	887.856
640.705	880.959
640.833	884.155
640.962	886.804
641.090	889.825
641.218	892.897
641.346	883.041
641.474	881.412
641.602	882.567
641.730	881.454
641.858	883.340
641.987	891.113
642.115	880.247
642.243	877.918
642.371	890.134
642.499	885.124
642.627	882.041
642.755	885.165
642.883	889.082
643.012	878.351
643.140	884.433
643.268	879.268
643.396	878.268
643.524	879.247
643.652	877.680
643.780	884.309
643.908	876.206
644.037	873.546
644.165	879.010
644.293	877.495
644.421	875.010
644.549	889.010
644.677	883.887
644.805	882.216
644.933	870.959
645.062	879.268
645.190	875.629
645.318	874.485
645.446	880.371
645.574	889.701
645.702	880.299
645.830	879.856
645.958	883.103
646.087	876.928
646.215	877.536
646.343	886.454
646.471	876.619
646.599	870.402
646.727	881.804
646.855	858.216
646.983	874.557
647.112	877.371
647.240	876.845
647.368	866.680
647.496	872.371
647.624	869.392
647.752	866.144
647.880	866.010
648.008	867.794
648.137	861.000
648.265	857.577
648.393	860.041
648.521	865.979
648.649	849.113
648.777	854.876
648.905	858.175
649.033	852.299
649.162	854.753
649.290	849.216
649.418	850.175
649.546	845.155
649.674	848.464
649.802	845.887
649.930	845.392
650.058	833.639
650.187	838.351
650.315	845.031
650.443	837.299
650.571	841.804
650.699	834.753
650.827	843.649
650.955	830.588
651.083	837.113
651.212	826.660
651.340	829.351
651.468	831.000
651.596	831.629
651.724	830.660
651.852	826.969
651.980	819.247
652.108	827.526
652.237	824.433
652.365	823.186
652.493	816.557
652.621	819.794
652.749	821.619
652.877	812.608
653.005	817.907
653.133	819.237
653.262	811.784
653.390	804.186
653.518	807.175
653.646	809.443
653.774	803.660
653.902	818.031
654.030	806.907
654.158	805.247
654.287	804.237
654.415	794.330
654.543	801.320
654.671	796.155
654.799	798.227
654.927	797.557
655.055	787.577
655.183	786.423
655.312	790.330
655.440	787.990
655.568	783.289
655.696	781.464
655.824	794.443
655.952	788.701
656.080	781.722
656.208	790.515
656.337	785.763
656.465	781.423
656.593	785.082
656.721	781.278
656.849	784.804
656.977	775.299
657.105	778.732
657.233	770.454
657.362	776.505
657.490	769.629
657.618	767.052
657.746	767.031
657.874	770.371
658.002	774.268
658.130	765.969
658.258	770.835
658.387	769.289
658.515	758.536
658.643	760.608
658.771	766.010
658.899	754.546
659.027	763.216
659.155	767.134
659.283	761.773
659.412	756.639
659.540	756.351
659.668	754.969
659.796	746.082
659.924	754.753
660.052	746.082
660.180	744.928
660.308	748.144
660.437	741.619
660.565	741.670
660.693	738.959
660.821	733.691
660.949	737.691
661.077	736.227
661.205	737.021
661.333	735.093
661.462	731.691
661.590	735.866
661.718	729.526
661.846	729.773
661.974	731.289
662.102	728.000
662.230	734.268
662.358	733.835
662.487	732.948
662.615	719.959
662.743	732.361
662.871	723.948
662.999	725.835
663.127	723.845
663.255	729.959
663.383	722.340
663.512	725.165
663.640	728.938
663.768	716.299
663.896	725.227
664.024	716.742
664.152	718.722
664.280	721.165
664.408	712.928
664.537	709.825
664.665	719.505
664.793	714.278
664.921	716.330
665.049	718.866
665.177	719.918
665.305	717.371
665.433	704.485
665.562	716.010
665.690	708.876
665.818	706.649
665.946	709.474
666.074	709.361
666.202	713.567
666.330	703.680
666.458	708.608
666.587	712.794
666.715	706.763
666.843	704.340
666.971	709.227
667.099	715.392
667.227	712.289
667.355	701.361
667.483	711.804
667.612	700.794
667.740	700.505
667.868	699.474
667.996	703.124
668.124	700.155
668.252	701.990
668.380	699.794
668.508	712.165
668.637	695.680
668.765	700.402
668.893	702.711
669.021	699.825
669.149	698.454
669.277	691.732
669.405	697.330
669.533	694.423
669.662	702.928
669.790	691.546
669.918	691.237
670.046	687.505
670.174	684.722
670.302	692.979
670.430	678.052
670.558	689.897
670.687	682.649
670.815	675.866
670.943	680.639
671.071	684.052
671.199	676.052
671.327	681.247
671.455	676.753
671.583	672.907
671.712	672.227
671.840	681.299
671.968	672.948
672.096	668.351
672.224	659.711
672.352	668.206
672.480	660.907
672.608	664.825
672.737	659.804
672.865	659.773
672.993	655.928
673.121	662.557
673.249	657.113
673.377	649.866
673.505	651.175
673.633	645.773
673.762	649.649
673.890	653.433
674.018	642.113
674.146	642.835
674.274	642.784
674.402	641.660
674.530	639.186
674.658	640.052
674.787	635.196
674.915	633.701
675.043	633.000
675.171	637.907
675.299	623.134
675.427	625.680
675.555	629.546
675.683	622.031
675.812	616.959
675.940	614.258
676.068	617.062
676.196	618.732
676.324	611.866
676.452	620.773
676.580	615.113
676.708	610.175
676.837	616.557
676.965	609.629
677.093	609.928
677.221	601.144
677.349	600.072
677.477	606.979
677.605	599.825
677.733	602.515
677.862	601.505
677.990	600.124
678.118	597.134
678.246	590.433
678.374	592.588
678.502	598.124
678.630	586.649
678.758	590.588
678.887	589.784
679.015	591.814
679.143	585.598
679.271	581.278
679.399	578.289
679.527	590.608
679.655	586.247
679.783	580.082
679.912	577.763
680.040	572.680
680.168	578.660
680.296	568.557
680.424	571.598
680.552	578.515
680.680	572.691
680.808	567.423
680.937	572.361
681.065	569.186
681.193	576.021
681.321	577.031
681.449	565.330
681.577	569.485
681.705	565.412
681.833	564.443
681.962	569.897
682.090	569.515
682.218	567.155
682.346	566.144
682.474	564.794
682.602	564.979
682.730	567.289
682.858	557.845
682.987	562.474
683.115	553.608
683.243	561.330
683.371	557.639
683.499	557.691
683.627	559.845
683.755	555.897
683.883	558.082
684.012	555.021
684.140	556.144
684.268	555.464
684.396	547.701
684.524	549.722
684.652	558.495
684.780	558.041
684.908	554.763
685.037	554.351
685.165	552.351
685.293	554.278
685.421	555.474
685.549	554.814
685.677	549.186
685.805	548.278
685.933	556.557
686.062	550.268
686.190	549.021
686.318	552.464
686.446	551.928
686.574	550.918
686.702	547.876
686.830	544.959
686.958	546.897
687.087	549.165
687.215	538.918
687.343	544.835
687.471	548.619
687.599	539.247
687.727	539.753
687.855	545.309
687.983	539.660
688.112	536.856
688.240	534.619
688.368	542.134
688.496	536.608
688.624	539.216
688.752	538.082
688.880	536.216
689.008	529.031
689.137	534.258
689.265	538.691
689.393	535.381
689.521	527.443
689.649	528.320
689.777	529.680
689.905	530.361
690.033	529.474
690.162	527.887
690.290	530.608
690.418	524.175
690.546	527.124
690.674	525.402
690.802	514.773
690.930	519.021
691.058	522.649
691.187	515.072
691.315	521.227
691.443	522.361
691.571	518.856
691.699	513.588
691.827	512.320
691.955	509.876
692.083	512.495
692.212	506.485
692.340	515.072
692.468	507.711
692.596	504.680
692.724	511.804
692.852	502.567
692.980	497.732
693.108	498.258
693.237	499.598
693.365	501.340
693.493	495.567
693.621	501.340
693.749	494.856
693.877	496.546
694.005	492.825
694.133	495.763
694.262	495.021
694.390	495.196
694.518	488.289
694.646	491.825
694.774	484.557
694.902	488.072
695.030	498.423
695.158	484.557
695.287	488.526
695.415	479.216
695.543	487.515
695.671	485.165
695.799	475.134
695.927	478.381
696.055	477.010
696.183	482.454
696.312	476.144
696.440	474.660
696.568	477.000
696.696	475.433
696.824	469.062
696.952	471.371
697.080	469.505
697.208	474.794
697.337	465.938
697.465	470.804
697.593	463.289
697.721	464.866
697.849	464.804
697.977	464.691
698.105	463.227
698.233	464.557
698.362	459.557
698.490	464.845
698.618	458.907
698.746	455.247
698.874	456.979
699.002	461.309
699.130	459.742
699.258	459.062
699.387	451.794
699.515	449.454
699.643	457.072
699.771	451.062
699.899	447.062
700.027	452.247
700.155	448.619
700.283	447.598
700.412	437.825
700.540	445.186
700.668	440.392
700.796	443.268
700.924	437.701
701.052	438.660
701.180	439.289
701.308	437.649
701.437	438.216
701.565	439.082
701.693	437.258
701.821	433.546
701.949	433.268
702.077	428.515
702.205	437.010
702.333	428.897
702.462	425.959
702.590	421.938
702.718	420.907
702.846	420.515
702.974	422.897
703.102	421.773
703.230	425.866
703.358	417.155
703.487	420.082
703.615	416.134
703.743	414.196
703.871	414.052
703.999	409.835
704.127	409.454
704.255	408.938
704.383	409.701
704.512	403.402
704.640	404.711
704.768	404.113
704.896	402.536
705.024	401.577
705.152	398.515
705.280	402.031
705.408	399.072
705.537	400.196
705.665	394.959
705.793	392.206
705.921	387.639
706.049	389.918
706.177	387.124
706.305	393.402
706.433	390.577
706.562	386.371
706.690	380.021
706.818	386.052
706.946	385.309
707.074	375.495
707.202	377.515
707.330	377.732
707.458	378.041
707.587	380.948
707.715	376.402
707.843	375.845
707.971	378.320
708.099	372.990
708.227	371.340
708.355	373.113
708.483	375.680
708.612	368.577
708.740	370.856
708.868	371.454
708.996	368.938
709.124	371.216
709.252	366.124
709.380	364.660
709.508	364.794
709.637	364.330
709.765	359.082
709.893	355.979
710.021	355.691
710.149	361.031
710.277	361.433
710.405	357.897
710.533	358.351
710.662	353.103
710.790	354.938
710.918	354.464
711.046	355.103
711.174	361.856
711.302	349.381
711.430	354.515
711.558	357.443
711.687	351.959
711.815	348.227
711.943	348.732
712.071	350.866
712.199	346.082
712.327	345.082
712.455	347.649
712.583	342.124
712.712	346.567
712.840	338.711
712.968	342.619
713.096	348.052
713.224	345.237
713.352	343.175
713.480	336.722
713.608	337.175
713.737	340.402
713.865	336.577
713.993	335.753
714.121	335.082
714.249	337.701
714.377	336.567
714.505	335.258
714.633	332.660
714.762	331.113
714.890	335.113
715.018	334.216
715.146	330.186
715.274	336.299
715.402	330.639
715.530	330.887
715.658	328.412
715.787	331.103
715.915	325.742
716.043	323.835
716.171	328.021
716.299	327.845
716.427	324.021
716.555	323.175
716.683	321.722
716.812	326.948
716.940	327.825
717.068	313.536
717.196	323.351
717.324	315.938
717.452	321.196
717.580	317.186
717.708	313.938
717.837	314.546
717.965	314.546
718.093	316.938
718.221	310.206
718.349	310.330
718.477	312.536
718.605	313.505
718.733	310.485
718.862	309.526
718.990	305.742
719.118	310.165
719.246	308.907
719.374	306.309
719.502	310.546
719.630	302.649
719.758	302.423
719.887	307.361
720.015	304.433
720.143	303.124
720.271	307.454
720.399	299.412
720.527	297.536
720.655	303.392
720.783	296.742
720.912	295.948
721.040	295.557
721.168	297.371
721.296	296.082
721.424	297.474
721.552	290.608
721.680	290.361
721.808	295.990
721.937	287.423
722.065	288.330
722.193	289.732
722.321	288.876
722.449	286.052
722.577	287.052
722.705	282.392
722.833	279.835
722.962	285.515
723.090	283.186
723.218	280.948
723.346	282.021
723.474	287.289
723.602	279.701
723.730	275.619
723.858	276.691
723.987	277.804
724.115	271.804
724.243	273.825
724.371	273.629
724.499	278.000
724.627	272.072
724.755	270.876
724.883	271.598
725.012	268.742
725.140	266.639
725.268	272.165
725.396	267.268
725.524	272.082
725.652	264.753
725.780	264.021
725.908	257.598
726.037	262.711
726.165	263.711
726.293	254.794
726.421	258.330
726.549	261.680
726.677	262.557
726.805	260.567
726.933	251.845
727.062	250.856
727.190	258.608
727.318	254.804
727.446	254.340
727.574	257.010
727.702	255.629
727.830	249.392
727.958	249.134
728.087	251.289
728.215	249.711
728.343	246.124
728.471	255.155
728.599	246.784
728.727	248.021
728.855	251.794
728.983	247.351
729.112	239.320
729.240	246.237
729.368	239.639
729.496	241.515
729.624	245.227
729.752	247.990
729.880	241.052
730.008	241.897
730.137	237.907
730.265	242.505
730.393	237.897
730.521	236.412
730.649	238.278
730.777	235.794
730.905	231.969
731.033	235.649
731.162	238.082
731.290	234.546
731.418	232.629
731.546	231.990
731.674	229.794
731.802	230.041
731.930	230.814
732.058	229.485
732.187	231.732
732.315	231.340
732.443	230.330
732.571	225.340
732.699	231.825
732.827	226.784
732.955	226.443
733.083	225.495
733.212	221.443
733.340	220.660
733.468	220.794
733.596	221.722
733.724	218.361
733.852	221.732
733.980	223.196
734.108	222.144
734.237	217.928
734.365	217.918
734.493	220.876
734.621	219.928
734.749	216.567
734.877	214.887
735.005	216.433
735.133	219.412
735.262	217.433
735.390	213.464
735.518	214.701
735.646	215.371
735.774	210.155
735.902	215.320
736.030	212.330
736.158	210.268
736.287	212.412
736.415	212.907
736.543	212.546
736.671	208.773
736.799	212.330
736.927	208.186
737.055	206.299
737.183	206.742
737.312	208.742
737.440	207.887
737.568	207.856
737.696	210.155
737.824	205.371
737.952	209.464
738.080	207.062
738.208	202.320
738.337	203.289
738.465	203.526
738.593	203.216
738.721	202.959
738.849	204.392
738.977	202.732
739.105	201.155
739.233	201.423
739.362	198.443
739.490	196.825
739.618	199.454
739.746	195.835
739.874	198.753
740.002	197.392
740.130	193.794
740.258	196.000
740.387	199.536
740.515	192.918
740.643	198.247
740.771	196.691
740.899	195.887
741.027	192.649
741.155	193.309
741.283	191.485
741.412	192.237
741.540	192.918
741.668	193.010
741.796	189.103
741.924	189.784
742.052	189.866
742.180	192.175
742.308	189.649
742.437	189.113
742.565	187.165
742.693	186.742
742.821	188.134
742.949	186.515
743.077	186.144
743.205	188.526
743.333	185.505
743.462	185.227
743.590	181.680
743.718	186.041
743.846	181.814
743.974	183.423
744.102	182.175
744.230	185.093
744.358	184.351
