90_130_0_Pol_at_750.00nm_cut_at_1179.00Y_01.dat
03.07.2023
11:32:38
cut middle at Y: 1179.00
top cursor: 1231 down cursor: 1127 mean of: 104 lines , 2560 datapoints
wavelength(nm)	intensity[arb. units]
585.996	10094.827
586.124	9912.135
586.252	9893.981
586.380	9932.000
586.508	9953.183
586.637	10034.654
586.765	9974.769
586.893	10012.163
587.021	10090.894
587.149	10064.135
587.277	10103.337
587.405	10089.471
587.533	10138.606
587.662	10198.952
587.790	10175.817
587.918	10160.740
588.046	10136.635
588.174	10176.202
588.302	10188.413
588.430	10163.952
588.558	10169.769
588.687	10231.962
588.815	10215.269
588.943	10202.048
589.071	10177.933
589.199	10203.067
589.327	10164.654
589.455	10264.221
589.583	10193.529
589.712	10202.192
589.840	10165.567
589.968	10170.529
590.096	10187.875
590.224	10167.202
590.352	10230.365
590.480	10183.606
590.608	10156.029
590.737	10179.933
590.865	10254.317
590.993	10165.962
591.121	10183.240
591.249	10150.865
591.377	10191.019
591.505	10281.644
591.633	10180.990
591.762	10196.942
591.890	10179.442
592.018	10294.663
592.146	10231.394
592.274	10234.971
592.402	10182.606
592.530	10365.394
592.658	10298.856
592.787	10294.837
592.915	10346.750
593.043	10247.279
593.171	10288.529
593.299	10309.635
593.427	10295.712
593.555	10320.365
593.683	10326.952
593.812	10338.558
593.940	10375.577
594.068	10415.692
594.196	10339.606
594.324	10428.846
594.452	10608.933
594.580	10493.250
594.708	10513.923
594.837	10512.163
594.965	10621.029
595.093	10581.375
595.221	10623.788
595.349	10620.683
595.477	10652.673
595.605	10650.817
595.733	10679.567
595.862	10726.952
595.990	10716.346
596.118	10792.769
596.246	10846.087
596.374	10754.673
596.502	10766.981
596.630	10805.933
596.758	10812.356
596.887	10833.471
597.015	10857.115
597.143	10858.721
597.271	10839.058
597.399	10929.721
597.527	10905.606
597.655	10876.827
597.783	10903.654
597.912	10915.163
598.040	10939.144
598.168	10896.702
598.296	10880.202
598.424	11058.846
598.552	10892.385
598.680	10911.702
598.808	10958.779
598.937	10920.442
599.065	10896.971
599.193	11005.221
599.321	10982.221
599.449	10900.740
599.577	10901.462
599.705	10932.606
599.833	10874.683
599.962	10845.750
600.090	10900.288
600.218	10910.673
600.346	10867.683
600.474	10869.760
600.602	10834.808
600.730	10858.779
600.858	10887.577
600.987	10914.183
601.115	10891.154
601.243	10948.769
601.371	10998.538
601.499	10968.952
601.627	10936.212
601.755	10906.048
601.883	11013.875
602.012	10898.279
602.140	10992.183
602.268	10961.221
602.396	11136.433
602.524	10988.885
602.652	11076.087
602.780	11071.856
602.908	11119.288
603.037	11150.702
603.165	11152.433
603.293	11207.433
603.421	11225.423
603.549	11236.298
603.677	11277.692
603.805	11282.798
603.933	11307.404
604.062	11401.221
604.190	11456.990
604.318	11433.471
604.446	11416.837
604.574	11503.279
604.702	11548.135
604.830	11544.788
604.958	11549.548
605.087	11608.663
605.215	11663.250
605.343	11742.971
605.471	11763.356
605.599	11752.942
605.727	11835.587
605.855	11823.048
605.983	11835.933
606.112	11911.654
606.240	11908.029
606.368	11906.635
606.496	11878.538
606.624	11960.529
606.752	11946.096
606.880	11976.173
607.008	11973.904
607.137	11973.048
607.265	12083.356
607.393	12021.394
607.521	12076.798
607.649	12013.250
607.777	12008.702
607.905	12071.885
608.033	11972.365
608.162	12041.779
608.290	12017.865
608.418	12144.077
608.546	12083.125
608.674	12092.087
608.802	12027.596
608.930	12016.481
609.058	12017.731
609.187	12001.240
609.315	11995.625
609.443	11980.846
609.571	12107.029
609.699	11977.163
609.827	12064.942
609.955	11973.923
610.083	11925.038
610.212	11960.173
610.340	11909.163
610.468	11917.183
610.596	11950.962
610.724	11907.673
610.852	11947.817
610.980	11956.923
611.108	11897.548
611.237	11887.750
611.365	11895.567
611.493	11888.933
611.621	11879.846
611.749	11934.413
611.877	11983.817
612.005	11889.500
612.133	11978.952
612.262	11955.538
612.390	11982.231
612.518	12025.327
612.646	11982.096
612.774	12057.365
612.902	12091.673
613.030	12028.490
613.158	12006.317
613.287	12163.202
613.415	12010.404
613.543	12093.029
613.671	12085.038
613.799	12145.779
613.927	12179.981
614.055	12176.452
614.183	12204.000
614.312	12165.163
614.440	12367.077
614.568	12271.683
614.696	12301.760
614.824	12332.337
614.952	12347.423
615.080	12341.596
615.208	12420.221
615.337	12492.288
615.465	12422.404
615.593	12476.673
615.721	12466.038
615.849	12592.538
615.977	12540.125
616.105	12563.625
616.233	12567.817
616.362	12624.798
616.490	12627.135
616.618	12687.212
616.746	12784.433
616.874	12743.288
617.002	12782.183
617.130	12781.394
617.258	12733.952
617.387	12812.423
617.515	12802.096
617.643	12797.913
617.771	12830.529
617.899	12780.442
618.027	12851.125
618.155	12899.933
618.283	12885.702
618.412	12931.240
618.540	12991.192
618.668	12949.712
618.796	12946.010
618.924	12871.606
619.052	12903.154
619.180	12923.144
619.308	12935.904
619.437	12912.269
619.565	12923.750
619.693	12909.933
619.821	12959.346
619.949	12854.740
620.077	12923.846
620.205	12923.183
620.333	12933.087
620.462	12867.875
620.590	12925.423
620.718	12922.452
620.846	12934.163
620.974	12945.000
621.102	12987.375
621.230	12914.125
621.358	13051.365
621.487	12881.231
621.615	12946.760
621.743	12821.635
621.871	12948.212
621.999	12828.471
622.127	12885.548
622.255	12847.798
622.383	12819.413
622.512	12844.346
622.640	12838.788
622.768	12896.990
622.896	12919.577
623.024	12878.385
623.152	12861.144
623.280	12918.519
623.408	12843.067
623.537	12837.490
623.665	12802.356
623.793	12858.231
623.921	12844.106
624.049	12841.115
624.177	12824.346
624.305	12816.202
624.433	12811.471
624.562	12789.990
624.690	12910.279
624.818	12730.731
624.946	12759.865
625.074	12745.731
625.202	12730.192
625.330	12748.221
625.458	12872.106
625.587	12744.702
625.715	12773.990
625.843	12735.106
625.971	12808.279
626.099	12746.596
626.227	12777.625
626.355	12735.538
626.483	12790.250
626.612	12719.106
626.740	12768.490
626.868	12754.606
626.996	12811.221
627.124	12757.404
627.252	12729.260
627.380	12729.702
627.508	12726.260
627.637	12775.298
627.765	12796.192
627.893	12789.365
628.021	12871.154
628.149	12773.904
628.277	12885.048
628.405	12803.673
628.533	12844.490
628.662	12842.356
628.790	12935.058
628.918	12865.904
629.046	12999.490
629.174	12870.962
629.302	12903.971
629.430	12880.913
629.558	12936.990
629.687	12894.260
629.815	12960.058
629.943	13055.510
630.071	13003.279
630.199	12964.452
630.327	13011.269
630.455	13029.048
630.583	13016.154
630.712	13033.894
630.840	13040.433
630.968	13042.663
631.096	13057.298
631.224	13086.885
631.352	13212.567
631.480	13139.875
631.608	13290.192
631.737	13087.567
631.865	13256.279
631.993	13212.846
632.121	13329.596
632.249	13196.683
632.377	13173.077
632.505	13165.712
632.633	13223.856
632.762	13113.731
632.890	13172.606
633.018	13188.356
633.146	13173.510
633.274	13142.288
633.402	13196.952
633.530	13171.942
633.658	13155.192
633.787	13152.096
633.915	13120.481
634.043	13132.163
634.171	13195.087
634.299	13141.221
634.427	13089.212
634.555	13316.087
634.683	13117.260
634.812	13127.462
634.940	13048.500
635.068	13068.760
635.196	13050.048
635.324	13038.452
635.452	13029.837
635.580	13147.067
635.708	12983.510
635.837	13026.856
635.965	12986.029
636.093	12946.481
636.221	12912.462
636.349	12831.135
636.477	12874.933
636.605	12890.827
636.733	12844.202
636.862	12817.202
636.990	12840.231
637.118	12769.519
637.246	12745.317
637.374	12893.212
637.502	12708.625
637.630	12678.808
637.758	12669.827
637.887	12624.558
638.015	12732.702
638.143	12650.865
638.271	12574.962
638.399	12586.692
638.527	12512.885
638.655	12552.981
638.783	12486.865
638.912	12568.808
639.040	12486.356
639.168	12456.827
639.296	12385.346
639.424	12521.279
639.552	12418.260
639.680	12466.529
639.808	12428.096
639.937	12369.356
640.065	12352.894
640.193	12360.721
640.321	12429.308
640.449	12388.202
640.577	12326.250
640.705	12298.779
640.833	12329.404
640.962	12369.740
641.090	12292.423
641.218	12299.019
641.346	12383.442
641.474	12325.760
641.602	12284.510
641.730	12228.029
641.858	12235.221
641.987	12239.519
642.115	12391.375
642.243	12285.923
642.371	12421.192
642.499	12253.683
642.627	12299.798
642.755	12252.000
642.883	12244.269
643.012	12253.048
643.140	12281.587
643.268	12292.337
643.396	12202.760
643.524	12254.913
643.652	12302.413
643.780	12197.962
643.908	12213.654
644.037	12308.115
644.165	12291.337
644.293	12388.250
644.421	12167.404
644.549	12250.394
644.677	12271.202
644.805	12186.096
644.933	12139.279
645.062	12198.173
645.190	12332.221
645.318	12225.087
645.446	12148.731
645.574	12118.067
645.702	12185.058
645.830	12186.010
645.958	12113.635
646.087	12105.365
646.215	12092.375
646.343	12076.846
646.471	12256.221
646.599	12078.567
646.727	12033.702
646.855	12061.875
646.983	12011.567
647.112	12099.365
647.240	12000.135
647.368	12052.423
647.496	12008.769
647.624	12010.606
647.752	11950.442
647.880	11939.135
648.008	11987.365
648.137	11973.798
648.265	11904.827
648.393	11999.885
648.521	11881.058
648.649	12015.769
648.777	11904.519
648.905	11819.519
649.033	11928.538
649.162	11795.644
649.290	11727.808
649.418	11727.558
649.546	11876.288
649.674	11704.010
649.802	11678.471
649.930	11610.106
650.058	11579.288
650.187	11614.548
650.315	11565.644
650.443	11583.788
650.571	11532.058
650.699	11485.990
650.827	11484.731
650.955	11447.183
651.083	11500.702
651.212	11374.519
651.340	11414.250
651.468	11358.298
651.596	11365.221
651.724	11361.683
651.852	11293.952
651.980	11316.635
652.108	11261.558
652.237	11272.173
652.365	11222.269
652.493	11217.933
652.621	11180.817
652.749	11174.721
652.877	11157.317
653.005	11191.731
653.133	11099.452
653.262	11079.365
653.390	11032.933
653.518	11184.894
653.646	11027.106
653.774	10985.500
653.902	11077.183
654.030	11008.471
654.158	10940.163
654.287	10957.269
654.415	10934.712
654.543	10965.298
654.671	10897.856
654.799	10885.856
654.927	10858.375
655.055	10807.279
655.183	10821.019
655.312	10789.596
655.440	10722.462
655.568	10777.010
655.696	10784.875
655.824	10725.202
655.952	10701.913
656.080	10640.558
656.208	10639.721
656.337	10687.654
656.465	10799.510
656.593	10637.558
656.721	10689.712
656.849	10689.644
656.977	10468.212
657.105	10560.490
657.233	10555.269
657.362	10567.625
657.490	10525.346
657.618	10529.827
657.746	10476.269
657.874	10405.971
658.002	10395.885
658.130	10320.250
658.258	10334.577
658.387	10285.731
658.515	10261.413
658.643	10214.375
658.771	10298.221
658.899	10206.644
659.027	10197.144
659.155	10219.000
659.283	10190.827
659.412	10161.952
659.540	10109.192
659.668	10170.740
659.796	10215.808
659.924	10174.433
660.052	10249.760
660.180	10118.798
660.308	10183.923
660.437	10156.952
660.565	10098.308
660.693	9981.096
660.821	10161.144
660.949	10015.058
661.077	10008.712
661.205	10125.577
661.333	9933.067
661.462	9917.173
661.590	10035.298
661.718	9932.587
661.846	9960.885
661.974	9879.250
662.102	9874.817
662.230	9866.490
662.358	9741.750
662.487	9818.769
662.615	9781.788
662.743	9820.087
662.871	9763.260
662.999	9694.327
663.127	9693.673
663.255	9688.981
663.383	9819.394
663.512	9613.308
663.640	9653.413
663.768	9688.317
663.896	9627.769
664.024	9620.567
664.152	9588.750
664.280	9658.615
664.408	9537.125
664.537	9514.952
664.665	9561.673
664.793	9534.163
664.921	9524.923
665.049	9543.712
665.177	9445.692
665.305	9475.221
665.433	9467.885
665.562	9602.240
665.690	9460.202
665.818	9567.163
665.946	9382.413
666.074	9359.260
666.202	9373.413
666.330	9307.923
666.458	9705.394
666.587	9323.385
666.715	9281.317
666.843	9268.519
666.971	9305.962
667.099	9296.413
667.227	9298.942
667.355	9294.625
667.483	9195.731
667.612	9232.615
667.740	9199.077
667.868	9193.279
667.996	9145.510
668.124	9141.356
668.252	9257.712
668.380	9079.356
668.508	9129.750
668.637	9068.154
668.765	9073.067
668.893	9047.087
669.021	8980.019
669.149	9053.615
669.277	8951.769
669.405	9043.615
669.533	9006.981
669.662	8942.125
669.790	8882.750
669.918	8918.240
670.046	9033.288
670.174	8848.087
670.302	8821.298
670.430	8793.788
670.558	8834.144
670.687	8935.202
670.815	8743.712
670.943	8795.990
671.071	8696.337
671.199	8657.856
671.327	8672.817
671.455	8712.788
671.583	8621.567
671.712	8601.827
671.840	8653.202
671.968	8725.067
672.096	8686.692
672.224	8528.625
672.352	8480.779
672.480	8443.548
672.608	8495.413
672.737	8424.288
672.865	8379.346
672.993	8378.423
673.121	8359.894
673.249	8329.202
673.377	8282.356
673.505	8282.163
673.633	8324.798
673.762	8231.606
673.890	8249.394
674.018	8251.144
674.146	8154.731
674.274	8179.067
674.402	8199.798
674.530	8140.663
674.658	8100.702
674.787	8077.952
674.915	8195.481
675.043	8060.654
675.171	8047.846
675.299	7946.154
675.427	7950.760
675.555	7952.298
675.683	7945.337
675.812	7931.740
675.940	7905.721
676.068	7813.471
676.196	7857.260
676.324	7822.385
676.452	7745.942
676.580	7736.375
676.708	7715.106
676.837	7693.442
676.965	7801.721
677.093	7803.865
677.221	7681.346
677.349	7612.587
677.477	7677.923
677.605	7562.404
677.733	7559.846
677.862	7564.385
677.990	7536.000
678.118	7568.904
678.246	7511.288
678.374	7551.538
678.502	7466.865
678.630	7395.135
678.758	7434.587
678.887	7550.683
679.015	7319.577
679.143	7311.212
679.271	7309.981
679.399	7287.635
679.527	7297.673
679.655	7321.644
679.783	7226.865
679.912	7215.288
680.040	7387.058
680.168	7158.394
680.296	7173.077
680.424	7158.788
680.552	7116.413
680.680	7099.481
680.808	7050.029
680.937	7042.096
681.065	7110.683
681.193	7019.038
681.321	6988.538
681.449	7043.173
681.577	6985.317
681.705	6959.788
681.833	6958.538
681.962	6923.567
682.090	6874.000
682.218	6896.240
682.346	6883.567
682.474	6858.962
682.602	6835.346
682.730	6889.442
682.858	6759.875
682.987	6791.394
683.115	6822.510
683.243	6791.510
683.371	6754.317
683.499	6727.087
683.627	6776.635
683.755	6734.202
683.883	6699.442
684.012	6737.038
684.140	6649.942
684.268	6655.663
684.396	6689.981
684.524	6632.798
684.652	6650.548
684.780	6634.462
684.908	6637.692
685.037	6619.269
685.165	6592.144
685.293	6660.625
685.421	6582.625
685.549	6569.356
685.677	6490.067
685.805	6558.750
685.933	6492.577
686.062	6496.587
686.190	6475.029
686.318	6457.702
686.446	6436.712
686.574	6397.635
686.702	6450.952
686.830	6375.317
686.958	6425.683
687.087	6353.596
687.215	6336.375
687.343	6367.356
687.471	6477.644
687.599	6254.048
687.727	6256.885
687.855	6227.471
687.983	6200.990
688.112	6268.288
688.240	6211.673
688.368	6232.548
688.496	6177.192
688.624	6163.279
688.752	6309.885
688.880	6160.548
689.008	6127.538
689.137	6118.413
689.265	6059.288
689.393	6067.962
689.521	6044.933
689.649	6136.500
689.777	6055.163
689.905	6102.769
690.033	5980.529
690.162	5973.279
690.290	6007.327
690.418	5943.019
690.546	5987.212
690.674	5964.875
690.802	5977.952
690.930	5901.183
691.058	5892.192
691.187	5844.510
691.315	5827.385
691.443	5812.808
691.571	5847.625
691.699	5774.337
691.827	5775.231
691.955	5758.452
692.083	5724.769
692.212	5732.529
692.340	5708.346
692.468	5761.577
692.596	5703.481
692.724	5666.846
692.852	5696.163
692.980	5685.827
693.108	5711.087
693.237	5583.269
693.365	5600.413
693.493	5564.644
693.621	5561.702
693.749	5484.596
693.877	5577.596
694.005	5467.779
694.133	5477.096
694.262	5510.606
694.390	5404.202
694.518	5437.087
694.646	5425.808
694.774	5351.029
694.902	5362.067
695.030	5356.327
695.158	5322.990
695.287	5312.750
695.415	5293.673
695.543	5281.125
695.671	5211.548
695.799	5331.673
695.927	5234.490
696.055	5254.731
696.183	5190.413
696.312	5353.644
696.440	5163.606
696.568	5190.135
696.696	5072.077
696.824	5052.163
696.952	5070.538
697.080	5066.058
697.208	5000.981
697.337	5006.192
697.465	5004.106
697.593	4946.135
697.721	5070.635
697.849	4943.317
697.977	4979.558
698.105	5017.846
698.233	4930.990
698.362	4860.327
698.490	4996.942
698.618	4841.760
698.746	4798.673
698.874	4891.885
699.002	4811.442
699.130	4812.933
699.258	4785.894
699.387	4721.202
699.515	4764.337
699.643	4761.433
699.771	4816.279
699.899	4691.038
700.027	4618.481
700.155	4725.500
700.283	4599.423
700.412	4614.692
700.540	4652.240
700.668	4668.442
700.796	4586.615
700.924	4594.221
701.052	4607.779
701.180	4575.260
701.308	4494.788
701.437	4487.625
701.565	4475.721
701.693	4501.462
701.821	4645.404
701.949	4419.240
702.077	4432.067
702.205	4485.538
702.333	4382.154
702.462	4366.183
702.590	4417.692
702.718	4317.548
702.846	4493.048
702.974	4280.029
703.102	4288.913
703.230	4300.837
703.358	4250.308
703.487	4250.000
703.615	4236.202
703.743	4196.394
703.871	4191.510
703.999	4193.010
704.127	4168.731
704.255	4128.577
704.383	4137.769
704.512	4201.740
704.640	4147.058
704.768	4194.683
704.896	4081.760
705.024	4027.115
705.152	4054.769
705.280	4089.510
705.408	3960.375
705.537	3956.192
705.665	3968.548
705.793	3944.288
705.921	3941.212
706.049	3910.327
706.177	3919.154
706.305	3858.327
706.433	3911.087
706.562	3878.067
706.690	3878.096
706.818	3857.683
706.946	3820.298
707.074	3770.952
707.202	3769.529
707.330	3761.135
707.458	3749.029
707.587	3701.019
707.715	3745.567
707.843	3760.000
707.971	3752.769
708.099	3665.798
708.227	3666.654
708.355	3658.279
708.483	3625.260
708.612	3665.250
708.740	3588.173
708.868	3578.375
708.996	3643.490
709.124	3635.250
709.252	3592.115
709.380	3593.231
709.508	3536.538
709.637	3571.154
709.765	3538.106
709.893	3562.577
710.021	3492.385
710.149	3580.702
710.277	3445.423
710.405	3468.087
710.533	3446.298
710.662	3419.615
710.790	3557.087
710.918	3418.519
711.046	3443.990
711.174	3383.788
711.302	3434.433
711.430	3374.260
711.558	3415.577
711.687	3369.096
711.815	3304.413
711.943	3325.356
712.071	3312.942
712.199	3326.423
712.327	3385.067
712.455	3264.990
712.583	3431.856
712.712	3298.077
712.840	3313.365
712.968	3232.952
713.096	3234.135
713.224	3207.587
713.352	3201.327
713.480	3153.538
713.608	3160.788
713.737	3127.212
713.865	3189.288
713.993	3167.077
714.121	3142.442
714.249	3096.317
714.377	3097.010
714.505	3084.923
714.633	3101.192
714.762	3091.154
714.890	3065.308
715.018	3056.019
715.146	3098.837
715.274	3018.019
715.402	3033.327
715.530	3004.183
715.658	3035.663
715.787	2966.596
715.915	3081.663
716.043	2979.202
716.171	3098.654
716.299	2934.087
716.427	2995.625
716.555	2926.125
716.683	2918.192
716.812	2900.529
716.940	2893.385
717.068	2853.317
717.196	3047.279
717.324	2882.702
717.452	2858.106
717.580	2905.750
717.708	2815.702
717.837	2846.250
717.965	2869.644
718.093	2807.212
718.221	2844.529
718.349	2861.846
718.477	2766.356
718.605	2863.404
718.733	2776.712
718.862	2804.250
718.990	2736.413
719.118	2802.663
719.246	2705.817
719.374	2696.317
719.502	2755.827
719.630	2854.856
719.758	2685.865
719.887	2671.625
720.015	2685.433
720.143	2715.077
720.271	2636.558
720.399	2677.942
720.527	2636.308
720.655	2716.462
720.783	2620.875
720.912	2603.279
721.040	2616.500
721.168	2647.923
721.296	2568.942
721.424	2575.471
721.552	2560.048
721.680	2610.865
721.808	2574.769
721.937	2561.452
722.065	2580.298
722.193	2549.433
722.321	2556.904
722.449	2550.433
722.577	2504.231
