sample1u_at_750.00nm_cut_at_1200.50Y_01.dat
19.06.2023
10:47:04
cut middle at Y: 1200.50
top cursor: 1249 down cursor: 1152 mean of: 97 lines , 2560 datapoints
wavelength(nm)	intensity[arb. units]
585.996	3235.371
586.124	3117.433
586.252	3090.876
586.380	3122.134
586.508	3124.216
586.637	3151.000
586.765	3102.876
586.893	3117.351
587.021	3189.010
587.149	3119.412
587.277	3121.856
587.405	3128.608
587.533	3154.680
587.662	3221.258
587.790	3166.186
587.918	3169.072
588.046	3144.680
588.174	3167.052
588.302	3168.041
588.430	3155.845
588.558	3192.000
588.687	3189.814
588.815	3166.485
588.943	3195.041
589.071	3155.557
589.199	3201.804
589.327	3202.515
589.455	3296.660
589.583	3245.835
589.712	3214.887
589.840	3202.216
589.968	3213.567
590.096	3217.928
590.224	3198.701
590.352	3227.175
590.480	3187.216
590.608	3241.928
590.737	3226.175
590.865	3359.639
590.993	3212.216
591.121	3293.515
591.249	3245.309
591.377	3221.907
591.505	3372.804
591.633	3278.742
591.762	3244.742
591.890	3259.258
592.018	3383.351
592.146	3248.959
592.274	3288.619
592.402	3254.670
592.530	3464.732
592.658	3331.557
592.787	3306.247
592.915	3349.443
593.043	3274.701
593.171	3312.186
593.299	3316.505
593.427	3316.134
593.555	3331.753
593.683	3345.557
593.812	3332.794
593.940	3341.175
594.068	3330.392
594.196	3323.340
594.324	3358.010
594.452	3548.309
594.580	3375.773
594.708	3431.866
594.837	3394.175
594.965	3485.351
595.093	3385.072
595.221	3441.474
595.349	3423.031
595.477	3442.052
595.605	3442.474
595.733	3462.753
595.862	3480.505
595.990	3500.660
596.118	3539.392
596.246	3589.010
596.374	3485.515
596.502	3494.062
596.630	3513.577
596.758	3504.835
596.887	3508.711
597.015	3509.062
597.143	3537.227
597.271	3543.443
597.399	3558.278
597.527	3517.495
597.655	3536.237
597.783	3535.412
597.912	3543.577
598.040	3550.289
598.168	3526.990
598.296	3477.093
598.424	3685.660
598.552	3518.381
598.680	3525.701
598.808	3553.093
598.937	3525.990
599.065	3539.814
599.193	3594.629
599.321	3561.309
599.449	3528.577
599.577	3552.412
599.705	3583.536
599.833	3540.000
599.962	3520.227
600.090	3579.206
600.218	3581.990
600.346	3548.320
600.474	3541.753
600.602	3531.567
600.730	3522.340
600.858	3536.907
600.987	3593.629
601.115	3568.649
601.243	3631.763
601.371	3664.856
601.499	3657.639
601.627	3612.155
601.755	3603.742
601.883	3675.144
602.012	3583.763
602.140	3683.433
602.268	3647.371
602.396	3775.814
602.524	3635.928
602.652	3712.825
602.780	3680.299
602.908	3707.753
603.037	3736.918
603.165	3745.691
603.293	3737.969
603.421	3738.454
603.549	3769.773
603.677	3803.258
603.805	3773.402
603.933	3784.330
604.062	3831.206
604.190	3842.629
604.318	3850.258
604.446	3824.639
604.574	3917.021
604.702	3943.825
604.830	3887.649
604.958	3888.175
605.087	3929.928
605.215	3948.835
605.343	4027.639
605.471	3953.103
605.599	3990.412
605.727	4043.165
605.855	3974.186
605.983	4018.495
606.112	4039.423
606.240	4047.938
606.368	4034.959
606.496	4007.567
606.624	4117.340
606.752	4048.990
606.880	4100.784
607.008	4032.722
607.137	4052.000
607.265	4142.124
607.393	4071.093
607.521	4161.763
607.649	4086.711
607.777	4104.742
607.905	4129.361
608.033	4076.773
608.162	4150.247
608.290	4113.536
608.418	4232.546
608.546	4197.959
608.674	4204.309
608.802	4145.485
608.930	4149.990
609.058	4105.144
609.187	4117.165
609.315	4135.814
609.443	4137.309
609.571	4266.340
609.699	4139.567
609.827	4248.557
609.955	4188.773
610.083	4135.381
610.212	4148.660
610.340	4169.320
610.468	4170.041
610.596	4170.113
610.724	4152.711
610.852	4237.742
610.980	4195.052
611.108	4159.876
611.237	4146.299
611.365	4167.546
611.493	4182.299
611.621	4154.536
611.749	4222.464
611.877	4258.464
612.005	4207.072
612.133	4268.309
612.262	4226.918
612.390	4303.897
612.518	4294.289
612.646	4216.443
612.774	4305.732
612.902	4317.443
613.030	4282.835
613.158	4331.918
613.287	4407.649
613.415	4281.443
613.543	4338.588
613.671	4381.639
613.799	4353.103
613.927	4392.021
614.055	4402.289
614.183	4423.701
614.312	4403.062
614.440	4529.021
614.568	4461.454
614.696	4468.856
614.824	4438.433
614.952	4478.784
615.080	4474.629
615.208	4506.247
615.337	4602.598
615.465	4493.773
615.593	4555.639
615.721	4529.227
615.849	4603.660
615.977	4558.897
616.105	4576.392
616.233	4567.938
616.362	4624.485
616.490	4595.495
616.618	4627.711
616.746	4704.773
616.874	4649.515
617.002	4675.237
617.130	4666.629
617.258	4638.608
617.387	4647.742
617.515	4692.835
617.643	4684.196
617.771	4763.093
617.899	4700.082
618.027	4750.062
618.155	4747.794
618.283	4734.485
618.412	4746.165
618.540	4796.856
618.668	4740.289
618.796	4775.536
618.924	4746.515
619.052	4807.546
619.180	4762.351
619.308	4791.443
619.437	4821.402
619.565	4803.093
619.693	4813.412
619.821	4848.474
619.949	4804.938
620.077	4846.052
620.205	4866.361
620.333	4892.691
620.462	4841.227
620.590	4843.464
620.718	4871.732
620.846	4889.031
620.974	4883.515
621.102	4914.701
621.230	4907.546
621.358	5051.866
621.487	4895.381
621.615	4981.505
621.743	4876.433
621.871	4965.464
621.999	4881.134
622.127	4914.515
622.255	4903.959
622.383	4917.969
622.512	4905.567
622.640	4911.216
622.768	4962.155
622.896	5046.278
623.024	5012.320
623.152	4966.000
623.280	5021.072
623.408	4957.866
623.537	4976.608
623.665	4938.423
623.793	4988.876
623.921	5018.392
624.049	5015.010
624.177	4996.031
624.305	5005.237
624.433	5034.845
624.562	5034.588
624.690	5165.753
624.818	4975.175
624.946	5051.206
625.074	5031.320
625.202	5008.639
625.330	5058.330
625.458	5149.062
625.587	5040.732
625.715	5098.113
625.843	5067.072
625.971	5097.495
626.099	5104.887
626.227	5137.876
626.355	5074.577
626.483	5170.216
626.612	5072.918
626.740	5126.155
626.868	5100.062
626.996	5164.454
627.124	5115.670
627.252	5098.371
627.380	5141.196
627.508	5126.433
627.637	5176.536
627.765	5159.299
627.893	5205.289
628.021	5278.495
628.149	5163.031
628.277	5293.309
628.405	5204.608
628.533	5233.155
628.662	5264.711
628.790	5325.309
628.918	5244.175
629.046	5388.856
629.174	5247.206
629.302	5326.206
629.430	5222.619
629.558	5301.278
629.687	5265.227
629.815	5332.990
629.943	5406.598
630.071	5354.186
630.199	5334.887
630.327	5361.660
630.455	5393.732
630.583	5364.134
630.712	5401.454
630.840	5454.660
630.968	5424.093
631.096	5387.959
631.224	5420.381
631.352	5557.835
631.480	5449.969
631.608	5642.216
631.737	5461.186
631.865	5612.309
631.993	5578.268
632.121	5663.515
632.249	5524.247
632.377	5528.381
632.505	5511.588
632.633	5535.701
632.762	5490.196
632.890	5527.237
633.018	5543.598
633.146	5538.969
633.274	5528.814
633.402	5613.052
633.530	5542.485
633.658	5575.216
633.787	5564.474
633.915	5539.753
634.043	5566.742
634.171	5637.175
634.299	5595.907
634.427	5525.588
634.555	5832.918
634.683	5591.474
634.812	5619.495
634.940	5583.113
635.068	5586.526
635.196	5582.577
635.324	5563.526
635.452	5613.588
635.580	5706.320
635.708	5571.948
635.837	5595.227
635.965	5583.660
636.093	5579.701
636.221	5594.918
636.349	5521.866
636.477	5562.371
636.605	5582.258
636.733	5522.464
636.862	5557.289
636.990	5593.443
637.118	5557.052
637.246	5556.340
637.374	5716.825
637.502	5519.062
637.630	5545.598
637.758	5570.021
637.887	5484.423
638.015	5658.845
638.143	5542.918
638.271	5529.021
638.399	5590.680
638.527	5510.649
638.655	5559.918
638.783	5546.649
638.912	5614.732
639.040	5536.773
639.168	5542.897
639.296	5542.773
639.424	5611.753
639.552	5578.546
639.680	5604.268
639.808	5582.052
639.937	5536.825
640.065	5505.897
640.193	5532.175
640.321	5638.598
640.449	5628.361
640.577	5536.155
640.705	5545.268
640.833	5561.969
640.962	5638.856
641.090	5518.402
641.218	5549.588
641.346	5651.753
641.474	5550.423
641.602	5563.320
641.730	5559.454
641.858	5511.763
641.987	5528.433
642.115	5745.742
642.243	5598.464
642.371	5747.773
642.499	5628.474
642.627	5670.876
642.755	5590.289
642.883	5630.454
643.012	5634.433
643.140	5704.649
643.268	5694.309
643.396	5627.784
643.524	5654.299
643.652	5750.227
643.780	5638.876
643.908	5601.557
644.037	5766.887
644.165	5765.031
644.293	5873.247
644.421	5654.876
644.549	5736.320
644.677	5770.773
644.805	5727.371
644.933	5688.268
645.062	5715.278
645.190	5852.247
645.318	5727.918
645.446	5676.866
645.574	5643.433
645.702	5775.505
645.830	5730.289
645.958	5693.186
646.087	5678.021
646.215	5660.639
646.343	5656.103
646.471	5846.392
646.599	5675.825
646.727	5668.227
646.855	5667.897
646.983	5673.938
647.112	5742.598
647.240	5668.918
647.368	5757.784
647.496	5670.546
647.624	5691.454
647.752	5671.660
647.880	5624.948
648.008	5674.536
648.137	5686.876
648.265	5645.742
648.393	5733.330
648.521	5636.320
648.649	5759.918
648.777	5702.144
648.905	5653.660
649.033	5723.062
649.162	5624.052
649.290	5599.722
649.418	5617.711
649.546	5797.907
649.674	5584.454
649.802	5587.320
649.930	5557.268
650.058	5522.505
650.187	5577.742
650.315	5550.186
650.443	5561.639
650.571	5564.165
650.699	5506.454
650.827	5519.804
650.955	5493.588
651.083	5597.443
651.212	5467.371
651.340	5558.629
651.468	5485.856
651.596	5551.928
651.724	5532.948
651.852	5489.794
651.980	5476.124
652.108	5502.567
652.237	5470.948
652.365	5437.691
652.493	5436.412
652.621	5414.546
652.749	5459.969
652.877	5412.402
653.005	5458.052
653.133	5380.814
653.262	5367.948
653.390	5373.289
653.518	5559.546
653.646	5372.711
653.774	5339.505
653.902	5453.567
654.030	5372.392
654.158	5311.649
654.287	5396.227
654.415	5377.237
654.543	5358.309
654.671	5310.546
654.799	5318.876
654.927	5291.680
655.055	5279.660
655.183	5282.134
655.312	5258.072
655.440	5274.876
655.568	5219.928
655.696	5315.299
655.824	5242.918
655.952	5233.557
656.080	5228.990
656.208	5228.165
656.337	5243.124
656.465	5353.948
656.593	5206.041
656.721	5277.763
656.849	5311.206
656.977	5132.515
657.105	5171.186
657.233	5197.918
657.362	5233.794
657.490	5167.186
657.618	5172.546
657.746	5152.938
657.874	5141.247
658.002	5132.804
658.130	5127.814
658.258	5143.711
658.387	5065.485
658.515	5074.887
658.643	5082.577
658.771	5147.691
658.899	5057.495
659.027	5086.000
659.155	5045.134
659.283	5022.753
659.412	5044.289
659.540	5042.000
659.668	5078.948
659.796	5119.021
659.924	5048.031
660.052	5099.361
660.180	4974.598
660.308	5037.062
660.437	5029.907
660.565	5000.072
660.693	4969.567
660.821	5151.216
660.949	4941.412
661.077	4984.629
661.205	5129.567
661.333	4964.629
661.462	4905.186
661.590	5051.670
661.718	4961.206
661.846	4973.186
661.974	4910.814
662.102	4933.557
662.230	4975.093
662.358	4860.948
662.487	4930.309
662.615	4900.268
662.743	4936.165
662.871	4867.918
662.999	4838.412
663.127	4834.918
663.255	4863.804
663.383	4973.268
663.512	4806.289
663.640	4879.515
663.768	4884.546
663.896	4805.278
664.024	4846.010
664.152	4795.722
664.280	4903.598
664.408	4771.144
664.537	4780.928
664.665	4801.361
664.793	4795.856
664.921	4751.567
665.049	4854.773
665.177	4760.237
665.305	4789.443
665.433	4779.031
665.562	4897.227
665.690	4762.330
665.818	4895.701
665.946	4716.722
666.074	4705.979
666.202	4727.113
666.330	4676.588
666.458	4740.969
666.587	4659.000
666.715	4701.423
666.843	4662.268
666.971	4705.474
667.099	4741.897
667.227	4762.237
667.355	4741.722
667.483	4656.464
667.612	4660.454
667.740	4687.381
667.868	4621.072
667.996	4623.474
668.124	4673.639
668.252	4734.907
668.380	4617.763
668.508	4638.474
668.637	4658.515
668.765	4659.402
668.893	4658.309
669.021	4551.361
669.149	4660.454
669.277	4550.351
669.405	4680.062
669.533	4621.742
669.662	4548.093
669.790	4556.536
669.918	4594.649
670.046	4706.928
670.174	4508.505
670.302	4486.124
670.430	4482.103
670.558	4535.928
670.687	4660.526
670.815	4501.155
670.943	4508.557
671.071	4425.247
671.199	4439.670
671.327	4436.289
671.455	4417.093
671.583	4416.330
671.712	4405.361
671.840	4469.216
671.968	4552.649
672.096	4549.887
672.224	4332.938
672.352	4334.876
672.480	4285.371
672.608	4378.402
672.737	4321.247
672.865	4265.052
672.993	4294.928
673.121	4273.928
673.249	4276.175
673.377	4231.876
673.505	4233.897
673.633	4260.784
673.762	4174.907
673.890	4220.742
674.018	4230.897
674.146	4174.990
674.274	4166.918
674.402	4218.423
674.530	4172.278
674.658	4141.536
674.787	4119.268
674.915	4244.969
675.043	4116.773
675.171	4142.485
675.299	4111.309
675.427	4074.804
675.555	4053.320
675.683	4088.763
675.812	4038.289
675.940	4021.546
676.068	3985.711
676.196	4036.907
676.324	3963.464
676.452	3958.052
676.580	3925.330
676.708	3939.000
676.837	3929.825
676.965	4035.392
677.093	4059.258
677.221	3944.918
677.349	3875.216
677.477	3974.825
677.605	3880.753
677.733	3876.619
677.862	3884.763
677.990	3881.278
678.118	3914.897
678.246	3859.175
678.374	3902.825
678.502	3835.753
678.630	3785.835
678.758	3830.433
678.887	3946.381
679.015	3746.557
679.143	3756.412
679.271	3732.423
679.399	3766.330
679.527	3774.227
679.655	3810.175
679.783	3701.062
679.912	3708.423
680.040	3890.474
680.168	3723.423
680.296	3720.052
680.424	3701.082
680.552	3651.443
680.680	3645.773
680.808	3631.268
680.937	3627.247
681.065	3699.928
681.193	3628.938
681.321	3591.309
681.449	3650.608
681.577	3611.742
681.705	3568.443
681.833	3608.000
681.962	3581.247
682.090	3544.784
682.218	3591.588
682.346	3600.237
682.474	3525.124
682.602	3541.608
682.730	3576.351
682.858	3499.330
682.987	3532.072
683.115	3562.804
683.243	3525.031
683.371	3513.000
683.499	3489.567
683.627	3533.856
683.755	3508.443
683.883	3480.639
684.012	3506.165
684.140	3458.649
684.268	3472.876
684.396	3527.794
684.524	3456.835
684.652	3477.072
684.780	3471.155
684.908	3475.887
685.037	3483.804
685.165	3463.216
685.293	3521.753
685.421	3465.010
685.549	3460.175
685.677	3417.619
685.805	3472.536
685.933	3440.000
686.062	3459.814
686.190	3405.990
686.318	3427.299
686.446	3394.216
686.574	3376.268
686.702	3467.103
686.830	3389.165
686.958	3444.918
687.087	3350.711
687.215	3381.052
687.343	3388.938
687.471	3523.041
687.599	3329.742
687.727	3317.258
687.855	3306.124
687.983	3303.165
688.112	3377.629
688.240	3304.670
688.368	3334.454
688.496	3302.722
688.624	3288.402
688.752	3456.825
688.880	3297.845
689.008	3283.680
689.137	3295.784
689.265	3253.216
689.393	3262.907
689.521	3231.320
689.649	3346.258
689.777	3272.237
689.905	3310.794
690.033	3188.948
690.162	3210.515
690.290	3239.072
690.418	3166.206
690.546	3211.423
690.674	3212.567
690.802	3238.041
690.930	3197.608
691.058	3169.495
691.187	3158.876
691.315	3115.186
691.443	3130.938
691.571	3168.052
691.699	3108.557
691.827	3095.175
691.955	3117.670
692.083	3071.722
692.212	3107.722
692.340	3089.938
692.468	3118.959
692.596	3086.515
692.724	3056.227
692.852	3069.928
692.980	3096.072
693.108	3125.351
693.237	3017.052
693.365	3006.371
693.493	2988.433
693.621	3033.021
693.749	2966.340
693.877	3044.753
694.005	2958.814
694.133	2966.227
694.262	3024.227
694.390	2916.897
694.518	2945.258
694.646	2933.557
694.774	2908.392
694.902	2925.804
695.030	2902.835
695.158	2903.268
695.287	2942.629
695.415	2889.773
695.543	2922.464
695.671	2865.753
695.799	2974.825
695.927	2865.959
696.055	2893.639
696.183	2857.216
696.312	3015.216
696.440	2866.031
696.568	2866.165
696.696	2777.474
696.824	2782.340
696.952	2795.423
697.080	2799.402
697.208	2767.670
697.337	2792.773
697.465	2778.804
697.593	2732.649
697.721	2855.443
697.849	2751.557
697.977	2784.835
698.105	2798.619
698.233	2778.918
698.362	2714.423
698.490	2825.557
698.618	2680.062
698.746	2688.753
698.874	2742.742
699.002	2710.732
699.130	2713.000
699.258	2703.412
699.387	2660.093
699.515	2693.227
699.643	2691.825
699.771	2720.742
699.899	2668.155
700.027	2627.196
700.155	2685.258
700.283	2617.546
700.412	2610.866
700.540	2665.072
700.668	2649.773
700.796	2610.557
700.924	2607.515
701.052	2600.041
701.180	2590.124
701.308	2559.928
701.437	2554.680
701.565	2566.825
701.693	2546.196
701.821	2589.216
701.949	2532.515
702.077	2537.897
702.205	2556.237
702.333	2532.887
702.462	2509.680
702.590	2510.402
702.718	2480.464
702.846	2512.784
702.974	2473.649
703.102	2472.876
703.230	2464.247
703.358	2443.577
703.487	2443.062
703.615	2446.907
703.743	2421.742
703.871	2427.814
703.999	2419.784
704.127	2391.320
704.255	2397.206
704.383	2385.495
704.512	2384.175
704.640	2369.691
704.768	2361.309
704.896	2357.237
705.024	2335.691
705.152	2323.340
705.280	2349.732
705.408	2316.546
705.537	2306.918
705.665	2317.052
705.793	2287.979
705.921	2300.433
706.049	2272.990
706.177	2267.990
706.305	2280.608
706.433	2256.763
706.562	2265.216
706.690	2257.041
706.818	2256.062
706.946	2230.670
707.074	2244.021
707.202	2207.691
707.330	2206.237
707.458	2226.969
707.587	2206.134
707.715	2195.794
707.843	2182.464
707.971	2191.124
708.099	2165.165
708.227	2185.144
708.355	2175.237
708.483	2173.454
708.612	2166.804
708.740	2146.866
708.868	2152.000
708.996	2127.732
709.124	2137.289
709.252	2141.175
709.380	2132.062
709.508	2103.062
709.637	2113.649
709.765	2091.268
709.893	2093.639
710.021	2097.454
710.149	2108.072
710.277	2086.206
710.405	2083.856
710.533	2072.454
710.662	2064.155
710.790	2078.784
710.918	2052.371
711.046	2068.866
711.174	2063.206
711.302	2047.959
711.430	2051.876
711.558	2058.371
711.687	2049.443
711.815	2039.588
711.943	2038.701
712.071	2029.103
712.199	2014.165
712.327	1997.773
712.455	2023.381
712.583	2020.330
712.712	2011.794
712.840	2005.144
712.968	2004.103
713.096	1994.918
713.224	1988.278
713.352	1968.722
713.480	1976.454
713.608	1977.031
713.737	1991.742
713.865	1964.598
713.993	1983.000
714.121	1956.402
714.249	1956.186
714.377	1953.093
714.505	1966.639
714.633	1949.557
714.762	1945.629
714.890	1955.464
715.018	1941.031
715.146	1952.237
715.274	1925.608
715.402	1928.443
715.530	1912.577
715.658	1905.619
715.787	1907.639
715.915	1917.515
716.043	1912.567
716.171	1871.845
716.299	1881.165
716.427	1893.299
716.555	1893.907
716.683	1880.000
716.812	1870.165
716.940	1883.392
717.068	1874.722
717.196	1878.845
717.324	1868.464
717.452	1839.742
717.580	1861.763
717.708	1831.598
717.837	1846.330
717.965	1838.443
718.093	1841.165
718.221	1825.155
718.349	1821.021
718.477	1831.082
718.605	1825.103
718.733	1818.649
718.862	1813.124
718.990	1817.732
719.118	1800.639
719.246	1789.041
719.374	1795.711
719.502	1782.897
719.630	1787.629
719.758	1783.918
719.887	1778.206
720.015	1769.464
720.143	1749.546
720.271	1752.588
720.399	1753.227
720.527	1740.433
720.655	1743.598
720.783	1734.505
720.912	1729.093
721.040	1715.588
721.168	1720.196
721.296	1722.825
721.424	1706.196
721.552	1700.639
721.680	1701.381
721.808	1693.763
721.937	1708.371
722.065	1679.062
722.193	1692.639
722.321	1690.763
722.449	1683.577
722.577	1661.309
722.705	1663.340
722.833	1658.598
722.962	1666.299
723.090	1652.608
723.218	1640.134
723.346	1636.866
723.474	1647.000
723.602	1622.289
723.730	1624.093
723.858	1619.186
723.987	1626.412
724.115	1620.412
724.243	1618.784
724.371	1606.175
724.499	1624.072
724.627	1597.247
724.755	1609.299
724.883	1586.072
725.012	1594.186
725.140	1574.093
725.268	1576.866
725.396	1551.196
725.524	1577.072
725.652	1543.464
725.780	1564.258
725.908	1544.134
726.037	1542.062
726.165	1545.041
726.293	1531.897
726.421	1524.701
726.549	1534.134
726.677	1518.392
726.805	1512.763
726.933	1510.918
727.062	1507.979
727.190	1501.330
727.318	1495.258
727.446	1501.670
727.574	1486.423
727.702	1475.402
727.830	1478.371
727.958	1474.722
728.087	1490.897
728.215	1458.175
728.343	1454.340
728.471	1461.680
728.599	1456.062
728.727	1460.392
728.855	1446.515
728.983	1427.268
729.112	1433.608
729.240	1432.773
729.368	1437.392
729.496	1420.804
729.624	1432.691
729.752	1417.814
729.880	1419.722
730.008	1409.113
730.137	1403.918
730.265	1408.629
730.393	1403.619
730.521	1400.186
730.649	1396.918
730.777	1392.928
730.905	1387.381
731.033	1373.175
731.162	1387.773
731.290	1385.381
731.418	1379.660
731.546	1366.258
731.674	1366.309
731.802	1372.412
731.930	1360.629
732.058	1356.773
732.187	1362.897
732.315	1344.691
732.443	1361.515
732.571	1350.990
732.699	1345.505
732.827	1340.010
732.955	1352.742
733.083	1327.722
733.212	1336.990
733.340	1333.093
733.468	1335.897
733.596	1317.320
733.724	1323.021
733.852	1314.639
733.980	1296.784
734.108	1315.082
734.237	1306.299
734.365	1308.000
734.493	1298.258
734.621	1298.701
734.749	1307.588
734.877	1296.371
735.005	1291.711
