sample8h_at_750.00nm_cut_at_1060.50Y_01.dat
19.06.2023
11:11:40
cut middle at Y: 1060.50
top cursor: 1109 down cursor: 1012 mean of: 97 lines , 2560 datapoints
wavelength(nm)	intensity[arb. units]
585.996	800.103
586.124	773.351
586.252	774.845
586.380	768.670
586.508	783.753
586.637	781.278
586.765	785.289
586.893	777.742
587.021	782.825
587.149	790.784
587.277	788.794
587.405	782.371
587.533	785.196
587.662	790.103
587.790	792.835
587.918	792.670
588.046	790.814
588.174	788.629
588.302	798.371
588.430	787.227
588.558	791.021
588.687	800.887
588.815	804.412
588.943	803.567
589.071	801.258
589.199	799.763
589.327	801.969
589.455	796.876
589.583	807.701
589.712	809.206
589.840	806.227
589.968	809.443
590.096	811.361
590.224	814.299
590.352	818.165
590.480	818.804
590.608	822.340
590.737	812.969
590.865	810.041
590.993	814.196
591.121	813.670
591.249	814.454
591.377	820.041
591.505	823.887
591.633	824.340
591.762	826.474
591.890	825.649
592.018	818.268
592.146	822.670
592.274	826.082
592.402	828.072
592.530	814.526
592.658	829.753
592.787	827.165
592.915	828.000
593.043	832.608
593.171	815.629
593.299	835.320
593.427	826.536
593.555	827.330
593.683	819.825
593.812	827.567
593.940	829.309
594.068	839.000
594.196	843.691
594.324	837.309
594.452	840.536
594.580	841.629
594.708	838.577
594.837	843.845
594.965	840.134
595.093	847.722
595.221	851.608
595.349	847.443
595.477	844.825
595.605	853.268
595.733	859.041
595.862	857.505
595.990	857.732
596.118	861.598
596.246	860.021
596.374	861.381
596.502	857.701
596.630	865.608
596.758	868.567
596.887	867.845
597.015	871.320
597.143	860.959
597.271	860.474
597.399	864.588
597.527	873.309
597.655	860.165
597.783	870.515
597.912	870.814
598.040	867.979
598.168	863.247
598.296	871.031
598.424	866.155
598.552	866.567
598.680	867.845
598.808	871.258
598.937	876.258
599.065	877.948
599.193	872.835
599.321	856.969
599.449	879.711
599.577	876.588
599.705	861.784
599.833	871.134
599.962	870.361
600.090	877.216
600.218	873.062
600.346	875.124
600.474	881.588
600.602	875.557
600.730	875.072
600.858	876.670
600.987	873.969
601.115	876.052
601.243	875.979
601.371	878.691
601.499	875.711
601.627	880.680
601.755	886.330
601.883	877.392
602.012	893.546
602.140	889.268
602.268	880.278
602.396	887.639
602.524	896.289
602.652	890.351
602.780	897.412
602.908	903.309
603.037	897.082
603.165	909.041
603.293	907.392
603.421	915.454
603.549	901.804
603.677	914.443
603.805	911.660
603.933	918.124
604.062	909.948
604.190	918.237
604.318	922.443
604.446	926.330
604.574	927.763
604.702	918.175
604.830	925.742
604.958	931.938
605.087	934.753
605.215	939.196
605.343	930.227
605.471	946.093
605.599	940.732
605.727	942.845
605.855	951.794
605.983	938.763
606.112	951.732
606.240	949.990
606.368	950.495
606.496	941.897
606.624	947.082
606.752	941.309
606.880	955.247
607.008	954.474
607.137	952.134
607.265	951.588
607.393	961.763
607.521	962.804
607.649	964.546
607.777	953.845
607.905	951.021
608.033	968.433
608.162	957.464
608.290	951.361
608.418	955.227
608.546	955.227
608.674	966.381
608.802	961.649
608.930	972.485
609.058	957.206
609.187	954.010
609.315	955.258
609.443	952.309
609.571	955.784
609.699	957.660
609.827	955.134
609.955	957.474
610.083	956.505
610.212	957.711
610.340	960.505
610.468	951.474
610.596	961.887
610.724	956.670
610.852	972.093
610.980	954.907
611.108	953.000
611.237	952.464
611.365	952.381
611.493	961.567
611.621	964.062
611.749	967.876
611.877	965.103
612.005	966.289
612.133	959.629
612.262	962.371
612.390	969.165
612.518	966.320
612.646	970.454
612.774	964.845
612.902	969.103
613.030	972.722
613.158	974.289
613.287	974.773
613.415	980.330
613.543	982.268
613.671	981.897
613.799	978.804
613.927	980.124
614.055	978.371
614.183	988.670
614.312	978.134
614.440	980.330
614.568	990.412
614.696	993.804
614.824	1001.206
614.952	1000.010
615.080	988.000
615.208	995.753
615.337	993.505
615.465	990.423
615.593	1004.443
615.721	1005.103
615.849	1004.784
615.977	1005.969
616.105	1003.433
616.233	1005.763
616.362	1009.072
616.490	995.825
616.618	1014.258
616.746	996.010
616.874	1011.845
617.002	1012.072
617.130	1015.134
617.258	1007.433
617.387	1002.082
617.515	1015.608
617.643	1008.938
617.771	1017.072
617.899	1012.680
618.027	1015.711
618.155	1019.381
618.283	1014.330
618.412	1012.732
618.540	1020.918
618.668	1017.392
618.796	1009.918
618.924	1020.144
619.052	1019.876
619.180	1015.082
619.308	1020.825
619.437	1017.845
619.565	1023.443
619.693	1021.361
619.821	1020.887
619.949	1018.557
620.077	1017.268
620.205	1029.825
620.333	1024.753
620.462	1034.144
620.590	1026.371
620.718	1032.113
620.846	1025.701
620.974	1038.753
621.102	1023.897
621.230	1030.258
621.358	1027.165
621.487	1034.536
621.615	1018.835
621.743	1030.825
621.871	1031.021
621.999	1013.918
622.127	1026.649
622.255	1023.309
622.383	1025.691
622.512	1033.000
622.640	1024.845
622.768	1026.567
622.896	1018.443
623.024	1023.639
623.152	1032.423
623.280	1018.887
623.408	1023.247
623.537	1026.691
623.665	1034.938
623.793	1028.309
623.921	1023.247
624.049	1028.515
624.177	1026.897
624.305	1027.928
624.433	1038.608
624.562	1025.588
624.690	1031.433
624.818	1028.155
624.946	1029.784
625.074	1032.887
625.202	1025.485
625.330	1026.515
625.458	1040.814
625.587	1034.361
625.715	1025.619
625.843	1027.155
625.971	1017.711
626.099	1023.907
626.227	1034.608
626.355	1026.196
626.483	1022.567
626.612	1023.072
626.740	1031.485
626.868	1029.268
626.996	1018.010
627.124	1018.278
627.252	1017.619
627.380	1026.206
627.508	1025.392
627.637	1035.062
627.765	1017.598
627.893	1029.247
628.021	1017.433
628.149	1027.948
628.277	1024.330
628.405	1026.351
628.533	1026.784
628.662	1020.454
628.790	1025.557
628.918	1018.216
629.046	1019.948
629.174	1016.464
629.302	1025.433
629.430	1024.722
629.558	1020.103
629.687	1032.124
629.815	1025.031
629.943	1025.505
630.071	1024.907
630.199	1026.959
630.327	1020.722
630.455	1028.577
630.583	1035.701
630.712	1032.763
630.840	1034.835
630.968	1035.794
631.096	1037.433
631.224	1022.371
631.352	1027.186
631.480	1027.732
631.608	1027.753
631.737	1031.649
631.865	1041.732
631.993	1025.742
632.121	1034.278
632.249	1035.670
632.377	1038.918
632.505	1028.887
632.633	1018.247
632.762	1034.433
632.890	1038.876
633.018	1023.196
633.146	1028.175
633.274	1026.557
633.402	1021.588
633.530	1025.320
633.658	1032.825
633.787	1020.309
633.915	1027.515
634.043	1021.216
634.171	1026.773
634.299	1022.000
634.427	1019.196
634.555	1024.711
634.683	1025.680
634.812	1016.247
634.940	1020.124
635.068	1020.660
635.196	1013.082
635.324	1017.206
635.452	1020.722
635.580	1016.515
635.708	1007.515
635.837	1007.309
635.965	1007.340
636.093	1002.361
636.221	1011.680
636.349	1005.588
636.477	997.680
636.605	1004.289
636.733	998.753
636.862	996.515
636.990	992.031
637.118	998.691
637.246	987.320
637.374	987.691
637.502	981.299
637.630	984.546
637.758	981.165
637.887	980.649
638.015	984.897
638.143	980.423
638.271	981.124
638.399	976.773
638.527	977.742
638.655	969.485
638.783	973.340
638.912	970.175
639.040	959.608
639.168	964.402
639.296	970.887
639.424	967.113
639.552	974.866
639.680	965.546
639.808	964.010
639.937	958.557
640.065	960.577
640.193	969.485
640.321	954.052
640.449	967.361
640.577	967.701
640.705	953.495
640.833	953.010
640.962	956.938
641.090	959.711
641.218	967.000
641.346	949.454
641.474	960.546
641.602	952.103
641.730	959.928
641.858	951.536
641.987	961.639
642.115	962.340
642.243	953.423
642.371	959.887
642.499	950.959
642.627	950.866
642.755	949.825
642.883	952.680
643.012	950.052
643.140	959.763
643.268	952.979
643.396	959.361
643.524	953.701
643.652	955.495
643.780	952.887
643.908	947.041
644.037	943.258
644.165	941.082
644.293	954.247
644.421	953.175
644.549	954.546
644.677	953.258
644.805	949.144
644.933	950.289
645.062	945.536
645.190	939.567
645.318	936.175
645.446	953.887
645.574	956.175
645.702	952.361
645.830	943.258
645.958	944.619
646.087	941.464
646.215	944.907
646.343	941.278
646.471	937.268
646.599	946.639
646.727	941.340
646.855	940.258
646.983	941.918
647.112	937.392
647.240	945.907
647.368	931.113
647.496	934.175
647.624	938.412
647.752	926.216
647.880	930.660
648.008	927.268
648.137	929.557
648.265	918.175
648.393	926.948
648.521	926.443
648.649	924.361
648.777	919.155
648.905	913.928
649.033	906.010
649.162	899.794
649.290	907.309
649.418	908.639
649.546	901.227
649.674	904.711
649.802	912.392
649.930	906.454
650.058	904.103
650.187	898.289
650.315	908.423
650.443	890.433
650.571	904.856
650.699	889.619
650.827	894.320
650.955	892.619
651.083	900.186
651.212	877.196
651.340	886.186
651.468	891.639
651.596	885.505
651.724	892.227
651.852	881.546
651.980	880.608
652.108	889.464
652.237	869.763
652.365	877.010
652.493	882.155
652.621	878.258
652.749	875.814
652.877	875.227
653.005	875.753
653.133	880.371
653.262	875.742
653.390	870.526
653.518	858.052
653.646	871.825
653.774	870.588
653.902	876.784
654.030	861.598
654.158	860.237
654.287	854.701
654.415	859.320
654.543	865.144
654.671	845.711
654.799	848.093
654.927	853.588
655.055	847.608
655.183	847.361
655.312	837.639
655.440	848.959
655.568	844.371
655.696	844.155
655.824	844.392
655.952	836.309
656.080	832.237
656.208	846.866
656.337	836.598
656.465	835.907
656.593	829.216
656.721	832.299
656.849	832.825
656.977	826.907
657.105	826.866
657.233	818.351
657.362	824.186
657.490	822.134
657.618	824.000
657.746	821.990
657.874	815.423
658.002	813.897
658.130	813.371
658.258	814.237
658.387	812.278
658.515	805.031
658.643	809.392
658.771	802.175
658.899	812.103
659.027	811.165
659.155	799.186
659.283	797.794
659.412	794.041
659.540	801.907
659.668	801.216
659.796	789.526
659.924	798.773
660.052	797.856
660.180	796.928
660.308	789.495
660.437	786.701
660.565	786.320
660.693	790.258
660.821	787.031
660.949	785.979
661.077	777.464
661.205	788.309
661.333	772.361
661.462	790.227
661.590	782.629
661.718	776.660
661.846	776.505
661.974	781.258
662.102	779.887
662.230	771.526
662.358	772.928
662.487	768.165
662.615	765.330
662.743	778.351
662.871	770.619
662.999	762.732
663.127	766.722
663.255	766.423
663.383	766.887
663.512	767.381
663.640	768.443
663.768	761.814
663.896	765.093
664.024	761.412
664.152	758.340
664.280	761.144
664.408	757.155
664.537	757.763
664.665	754.619
664.793	753.072
664.921	744.691
665.049	753.969
665.177	759.474
665.305	750.443
665.433	749.763
665.562	749.907
665.690	746.021
665.818	753.320
665.946	742.825
666.074	745.155
666.202	749.948
666.330	741.464
666.458	740.608
666.587	737.526
666.715	741.134
666.843	749.794
666.971	730.464
667.099	740.526
667.227	741.598
667.355	736.577
667.483	737.351
667.612	726.979
667.740	736.186
667.868	725.454
667.996	730.969
668.124	724.856
668.252	730.629
668.380	724.299
668.508	738.763
668.637	725.588
668.765	720.258
668.893	721.536
669.021	715.237
669.149	713.742
669.277	713.103
669.405	717.289
669.533	711.371
669.662	717.196
669.790	711.660
669.918	714.701
670.046	720.113
670.174	709.639
670.302	704.474
670.430	697.155
670.558	709.979
670.687	704.969
670.815	699.247
670.943	695.804
671.071	697.588
671.199	701.907
671.327	695.660
671.455	685.392
671.583	696.907
671.712	691.175
671.840	691.938
671.968	681.515
672.096	682.711
672.224	684.794
672.352	682.856
672.480	685.010
672.608	675.320
672.737	677.392
672.865	665.866
672.993	671.670
673.121	670.711
673.249	673.340
673.377	664.485
673.505	666.144
673.633	663.258
673.762	656.454
673.890	663.918
674.018	658.598
674.146	654.268
674.274	660.320
674.402	656.113
674.530	652.165
674.658	652.103
674.787	641.814
674.915	649.340
675.043	652.082
675.171	650.278
675.299	643.722
675.427	646.835
675.555	636.598
675.683	636.701
675.812	636.753
675.940	632.485
676.068	630.928
676.196	626.227
676.324	622.835
676.452	624.825
676.580	625.701
676.708	628.196
676.837	631.144
676.965	618.041
677.093	620.969
677.221	618.680
677.349	617.619
677.477	612.454
677.605	611.742
677.733	616.072
677.862	610.371
677.990	604.907
678.118	607.680
678.246	605.670
678.374	598.526
678.502	607.887
678.630	605.103
678.758	604.907
678.887	600.959
679.015	600.979
679.143	595.773
679.271	594.804
679.399	591.299
679.527	591.691
679.655	593.505
679.783	592.216
679.912	582.784
680.040	590.887
680.168	587.351
680.296	585.505
680.424	585.732
680.552	576.268
680.680	577.351
680.808	577.351
680.937	577.454
681.065	576.784
681.193	569.299
681.321	572.948
681.449	570.835
681.577	565.258
681.705	565.907
681.833	565.062
681.962	570.546
682.090	566.237
682.218	565.381
682.346	569.062
682.474	563.845
682.602	566.021
682.730	560.546
682.858	565.866
682.987	565.825
683.115	558.701
683.243	558.340
683.371	554.536
683.499	550.722
683.627	561.649
683.755	553.474
683.883	550.845
684.012	549.990
684.140	551.144
684.268	549.082
684.396	550.577
684.524	548.763
684.652	546.474
684.780	556.278
684.908	544.722
685.037	543.454
685.165	544.340
685.293	548.052
685.421	549.206
685.549	541.753
685.677	535.371
685.805	542.258
685.933	539.598
686.062	537.289
686.190	537.701
686.318	539.639
686.446	534.278
686.574	534.072
686.702	538.216
686.830	538.320
686.958	534.897
687.087	538.165
687.215	526.804
687.343	530.856
687.471	534.216
687.599	531.515
687.727	532.340
687.855	531.474
687.983	527.979
688.112	526.526
688.240	522.732
688.368	533.371
688.496	518.753
688.624	523.464
688.752	523.062
688.880	519.773
689.008	521.268
689.137	517.402
689.265	517.495
689.393	516.649
689.521	519.330
689.649	522.918
689.777	509.423
689.905	515.392
690.033	509.546
690.162	508.278
690.290	502.918
690.418	505.856
690.546	510.227
690.674	502.361
690.802	501.979
690.930	505.598
691.058	499.526
691.187	494.093
691.315	500.515
691.443	496.938
691.571	496.433
691.699	491.351
691.827	488.711
691.955	494.175
692.083	493.155
692.212	490.082
692.340	488.247
692.468	487.763
692.596	483.773
692.724	485.773
692.852	475.773
692.980	481.247
693.108	472.928
693.237	476.443
693.365	481.794
693.493	471.041
693.621	470.856
693.749	474.598
693.877	471.103
694.005	470.237
694.133	474.041
694.262	465.649
694.390	465.969
694.518	462.495
694.646	458.515
694.774	462.928
694.902	458.361
695.030	466.835
695.158	462.670
695.287	455.536
695.415	456.691
695.543	459.495
695.671	456.969
695.799	452.433
695.927	449.784
696.055	448.866
696.183	452.216
696.312	449.443
696.440	447.175
696.568	445.670
696.696	448.196
696.824	445.907
696.952	440.134
697.080	435.155
697.208	444.856
697.337	438.897
697.465	436.340
697.593	439.598
697.721	430.969
697.849	434.649
697.977	432.753
698.105	441.536
698.233	433.928
698.362	428.392
698.490	432.093
698.618	428.247
698.746	431.093
698.874	431.041
699.002	423.577
699.130	420.691
699.258	430.227
699.387	426.351
699.515	420.918
699.643	424.990
699.771	422.825
699.899	421.351
700.027	418.990
700.155	418.918
700.283	415.103
700.412	414.804
700.540	414.866
700.668	405.577
700.796	413.175
700.924	406.299
701.052	412.526
701.180	409.031
701.308	407.227
701.437	404.557
701.565	406.103
701.693	404.701
701.821	398.351
701.949	406.412
702.077	400.052
702.205	398.309
702.333	396.289
702.462	400.124
702.590	395.299
702.718	395.536
702.846	390.175
702.974	393.361
703.102	392.474
703.230	384.969
703.358	386.660
703.487	386.021
703.615	383.082
703.743	380.598
703.871	379.237
703.999	377.598
704.127	382.330
704.255	379.804
704.383	378.361
704.512	375.031
704.640	375.289
704.768	372.691
704.896	364.969
705.024	369.866
705.152	367.608
705.280	371.897
705.408	371.072
705.537	366.918
705.665	368.485
705.793	361.753
705.921	360.773
706.049	358.557
706.177	360.247
706.305	360.938
706.433	361.711
706.562	353.175
706.690	356.155
706.818	354.454
706.946	358.268
707.074	352.557
707.202	347.969
707.330	350.175
707.458	353.608
707.587	351.268
707.715	344.701
707.843	345.392
707.971	346.814
708.099	343.526
708.227	342.021
708.355	340.330
708.483	342.351
708.612	342.392
708.740	337.320
708.868	342.443
708.996	337.546
709.124	342.567
709.252	341.278
709.380	332.959
709.508	332.010
709.637	335.186
709.765	333.856
709.893	335.216
710.021	335.866
710.149	336.010
710.277	332.062
710.405	331.155
710.533	326.278
710.662	326.845
710.790	329.216
710.918	329.309
711.046	330.722
711.174	327.814
711.302	324.907
711.430	327.866
711.558	325.124
711.687	322.320
711.815	321.196
711.943	327.072
712.071	324.629
712.199	316.495
712.327	316.629
712.455	320.773
712.583	322.062
712.712	322.392
712.840	313.588
712.968	313.990
713.096	317.928
713.224	317.155
713.352	314.742
713.480	313.330
713.608	313.649
713.737	316.990
713.865	310.103
713.993	309.938
714.121	313.928
714.249	310.196
714.377	310.794
714.505	308.175
714.633	309.340
714.762	307.732
714.890	312.732
715.018	308.577
715.146	308.505
715.274	302.773
715.402	303.639
715.530	306.206
715.658	304.825
715.787	302.649
715.915	305.990
716.043	302.124
716.171	300.485
716.299	304.278
716.427	302.588
716.555	300.041
716.683	302.351
716.812	300.835
716.940	304.175
717.068	296.268
717.196	301.093
717.324	298.763
717.452	290.464
717.580	294.485
717.708	293.577
717.837	295.052
717.965	292.536
718.093	297.680
718.221	289.423
718.349	292.619
718.477	297.464
718.605	283.381
718.733	288.722
718.862	286.608
718.990	290.052
719.118	280.773
719.246	281.278
719.374	285.639
719.502	283.505
719.630	282.546
719.758	286.340
719.887	281.856
720.015	281.227
720.143	285.732
720.271	280.505
720.399	285.577
720.527	281.938
720.655	282.536
720.783	279.948
720.912	276.619
721.040	277.629
721.168	271.649
721.296	272.237
721.424	270.866
721.552	272.701
721.680	272.010
721.808	274.814
721.937	264.402
722.065	273.031
722.193	271.052
722.321	271.546
722.449	270.969
722.577	269.474
722.705	265.773
722.833	262.165
722.962	261.278
723.090	262.144
723.218	262.464
723.346	264.392
723.474	262.052
723.602	258.577
723.730	256.423
723.858	262.474
723.987	258.227
724.115	256.691
724.243	258.237
724.371	252.866
724.499	252.753
724.627	253.794
724.755	255.340
724.883	249.835
725.012	249.000
725.140	246.753
725.268	251.196
725.396	253.959
725.524	248.526
725.652	248.113
725.780	247.485
725.908	246.639
726.037	243.680
726.165	244.505
726.293	244.567
726.421	244.392
726.549	239.814
726.677	241.412
726.805	245.052
726.933	249.031
727.062	239.856
727.190	236.701
727.318	235.629
727.446	240.309
727.574	245.196
727.702	241.845
727.830	238.268
727.958	236.526
728.087	237.010
728.215	232.206
728.343	235.732
728.471	237.526
728.599	232.742
728.727	233.897
728.855	237.804
728.983	234.577
729.112	228.722
729.240	234.505
729.368	228.371
729.496	225.031
729.624	231.196
729.752	233.897
729.880	228.155
730.008	229.196
730.137	228.402
730.265	226.938
730.393	226.443
730.521	223.155
730.649	227.907
730.777	222.165
730.905	223.371
731.033	224.216
731.162	224.454
731.290	217.856
731.418	220.557
731.546	219.454
731.674	225.010
731.802	217.814
731.930	225.113
732.058	221.557
732.187	218.216
732.315	218.660
732.443	221.742
732.571	215.072
732.699	225.598
732.827	216.979
732.955	216.928
733.083	218.598
733.212	214.227
733.340	214.474
733.468	213.598
733.596	214.155
733.724	213.938
733.852	212.186
733.980	211.000
734.108	213.299
734.237	212.289
734.365	210.753
734.493	217.742
734.621	215.536
734.749	208.619
734.877	213.825
735.005	211.742
735.133	213.742
735.262	213.330
735.390	211.577
735.518	209.206
735.646	210.464
735.774	207.392
735.902	208.588
736.030	210.309
736.158	208.165
736.287	205.124
736.415	209.216
736.543	210.701
736.671	208.753
736.799	204.464
736.927	206.423
737.055	208.495
737.183	203.948
737.312	204.979
737.440	204.619
737.568	206.876
737.696	207.340
737.824	206.639
737.952	203.732
738.080	205.959
738.208	201.876
738.337	199.082
738.465	200.454
738.593	199.814
738.721	199.247
738.849	200.732
738.977	199.021
739.105	203.134
739.233	196.381
739.362	195.577
739.490	197.443
739.618	200.773
739.746	198.825
739.874	196.124
740.002	198.732
740.130	197.113
740.258	197.546
740.387	200.144
740.515	197.247
740.643	200.320
740.771	198.711
740.899	198.330
741.027	191.649
741.155	195.278
741.283	196.299
741.412	195.577
741.540	196.103
741.668	194.845
741.796	191.526
741.924	192.268
742.052	193.567
742.180	190.124
742.308	191.639
742.437	190.732
742.565	190.186
742.693	193.557
742.821	191.588
742.949	191.691
743.077	191.742
