90_80_wo_Pol_at_750.00nm_cut_at_1179.00Y_01.dat
03.07.2023
11:25:47
cut middle at Y: 1179.00
top cursor: 1231 down cursor: 1127 mean of: 104 lines , 2560 datapoints
wavelength(nm)	intensity[arb. units]
585.996	24443.942
586.124	24027.308
586.252	24040.250
586.380	24110.192
586.508	24202.183
586.637	24326.106
586.765	24360.971
586.893	24403.702
587.021	24458.394
587.149	24524.885
587.277	24596.596
587.405	24600.779
587.533	24730.942
587.662	24734.250
587.790	24735.635
587.918	24749.231
588.046	24736.788
588.174	24789.894
588.302	24856.298
588.430	24848.817
588.558	24846.769
588.687	24873.000
588.815	24950.558
588.943	24866.481
589.071	24855.058
589.199	24951.385
589.327	24919.500
589.455	24976.471
589.583	24885.442
589.712	24952.058
589.840	24865.596
589.968	24969.760
590.096	25028.894
590.224	25025.731
590.352	25076.817
590.480	25024.558
590.608	24996.510
590.737	24986.779
590.865	25073.375
590.993	24997.192
591.121	24984.635
591.249	25005.702
591.377	25063.846
591.505	25086.846
591.633	25052.433
591.762	25077.635
591.890	25165.663
592.018	25180.202
592.146	25213.875
592.274	25112.019
592.402	25224.029
592.530	25359.000
592.658	25303.952
592.787	25332.721
592.915	25449.413
593.043	25309.163
593.171	25449.490
593.299	25430.885
593.427	25440.548
593.555	25519.288
593.683	25529.615
593.812	25567.365
593.940	25624.865
594.068	25688.904
594.196	25704.635
594.324	25743.750
594.452	25948.654
594.580	25883.279
594.708	25981.904
594.837	26049.346
594.965	26160.942
595.093	26166.644
595.221	26349.510
595.349	26296.202
595.477	26310.692
595.605	26429.596
595.733	26481.808
595.862	26418.933
595.990	26518.808
596.118	26657.519
596.246	26664.298
596.374	26680.952
596.502	26767.087
596.630	26754.558
596.758	26766.413
596.887	26890.779
597.015	26894.087
597.143	26918.577
597.271	26932.817
597.399	27047.952
597.527	27014.606
597.655	27045.923
597.783	27083.346
597.912	27120.346
598.040	27126.990
598.168	27119.817
598.296	27059.875
598.424	27284.923
598.552	27087.144
598.680	27131.192
598.808	27305.346
598.937	27176.788
599.065	27195.202
599.193	27279.798
599.321	27270.154
599.449	27245.356
599.577	27194.577
599.705	27223.346
599.833	27181.913
599.962	27154.865
600.090	27187.538
600.218	27150.981
600.346	27211.942
600.474	27212.567
600.602	27197.904
600.730	27223.423
600.858	27279.260
600.987	27384.346
601.115	27272.346
601.243	27324.731
601.371	27407.337
601.499	27408.260
601.627	27439.298
601.755	27449.433
601.883	27464.356
602.012	27397.837
602.140	27510.971
602.268	27551.038
602.396	27719.760
602.524	27699.529
602.652	27863.000
602.780	27841.577
602.908	27940.702
603.037	28064.875
603.165	28099.788
603.293	28202.529
603.421	28210.202
603.549	28344.356
603.677	28354.923
603.805	28492.606
603.933	28563.433
604.062	28766.298
604.190	28822.779
604.318	28902.317
604.446	28908.875
604.574	29014.000
604.702	29092.144
604.830	29124.077
604.958	29210.731
605.087	29350.702
605.215	29569.712
605.343	29665.192
605.471	29663.375
605.599	29724.202
605.727	29899.644
605.855	29961.904
605.983	30048.673
606.112	30154.250
606.240	30145.538
606.368	30219.673
606.496	30287.087
606.624	30379.250
606.752	30415.394
606.880	30497.913
607.008	30562.375
607.137	30582.317
607.265	30701.673
607.393	30736.240
607.521	30806.202
607.649	30769.683
607.777	30746.356
607.905	30837.538
608.033	30817.202
608.162	30775.721
608.290	30776.115
608.418	30938.183
608.546	30919.019
608.674	30974.106
608.802	30864.010
608.930	30915.269
609.058	30944.875
609.187	30859.192
609.315	30879.385
609.443	30903.298
609.571	30975.663
609.699	30896.327
609.827	30907.163
609.955	30945.500
610.083	30874.385
610.212	30858.971
610.340	30820.962
610.468	30918.510
610.596	30839.635
610.724	30865.327
610.852	30920.702
610.980	30935.981
611.108	30873.587
611.237	30871.173
611.365	30921.038
611.493	30841.933
611.621	30904.240
611.749	30990.096
611.877	30975.163
612.005	30992.327
612.133	31052.442
612.262	31113.529
612.390	31217.856
612.518	31260.817
612.646	31283.558
612.774	31408.154
612.902	31344.048
613.030	31440.942
613.158	31391.154
613.287	31552.077
613.415	31469.096
613.543	31587.365
613.671	31600.154
613.799	31731.596
613.927	31777.538
614.055	31851.029
614.183	31924.894
614.312	31934.663
614.440	32116.192
614.568	32139.923
614.696	32260.490
614.824	32305.183
614.952	32380.731
615.080	32456.365
615.208	32565.308
615.337	32681.058
615.465	32637.327
615.593	32818.087
615.721	32787.221
615.849	32959.433
615.977	32978.654
616.105	33076.000
616.233	33128.567
616.362	33278.587
616.490	33301.740
616.618	33410.500
616.746	33568.990
616.874	33597.413
617.002	33613.750
617.130	33718.952
617.258	33711.577
617.387	33753.606
617.515	33865.721
617.643	33862.587
617.771	33932.462
617.899	33915.779
618.027	34056.231
618.155	34078.269
618.283	34123.356
618.412	34209.490
618.540	34281.308
618.668	34313.913
618.796	34295.933
618.924	34280.346
619.052	34339.779
619.180	34347.673
619.308	34292.865
619.437	34351.760
619.565	34346.606
619.693	34418.990
619.821	34441.019
619.949	34396.827
620.077	34480.702
620.205	34479.635
620.333	34507.317
620.462	34551.904
620.590	34558.462
620.718	34555.452
620.846	34628.962
620.974	34596.471
621.102	34700.481
621.230	34657.760
621.358	34762.288
621.487	34630.221
621.615	34680.058
621.743	34621.760
621.871	34645.019
621.999	34614.240
622.127	34649.288
622.255	34608.712
622.383	34599.029
622.512	34661.048
622.640	34621.510
622.768	34708.519
622.896	34696.567
623.024	34750.808
623.152	34680.942
623.280	34813.529
623.408	34779.740
623.537	34839.462
623.665	34782.192
623.793	34857.183
623.921	34828.942
624.049	34843.317
624.177	34777.606
624.305	34788.404
624.433	34800.567
624.562	34825.788
624.690	34949.087
624.818	34781.269
624.946	34714.692
625.074	34794.962
625.202	34816.760
625.330	34857.769
625.458	34940.577
625.587	34865.606
625.715	34924.673
625.843	34887.038
625.971	34990.856
626.099	34930.606
626.227	34959.663
626.355	34885.010
626.483	34935.577
626.612	35002.827
626.740	35138.000
626.868	35065.087
626.996	35125.519
627.124	35138.231
627.252	35125.154
627.380	35156.904
627.508	35131.519
627.637	35131.096
627.765	35267.115
627.893	35278.596
628.021	35353.096
628.149	35236.250
628.277	35365.548
628.405	35362.519
628.533	35335.615
628.662	35390.750
628.790	35530.260
628.918	35498.615
629.046	35699.029
629.174	35513.596
629.302	35615.721
629.430	35608.471
629.558	35692.490
629.687	35731.519
629.815	35781.394
629.943	35895.394
630.071	35899.971
630.199	35908.654
630.327	36019.404
630.455	36040.404
630.583	36037.317
630.712	36099.952
630.840	36106.817
630.968	36164.519
631.096	36229.837
631.224	36269.038
631.352	36397.183
631.480	36412.654
631.608	36578.558
631.737	36446.577
631.865	36514.827
631.993	36559.942
632.121	36707.087
632.249	36644.538
632.377	36607.962
632.505	36700.875
632.633	36820.962
632.762	36709.221
632.890	36733.433
633.018	36690.990
633.146	36649.942
633.274	36657.952
633.402	36724.183
633.530	36739.490
633.658	36707.019
633.787	36758.413
633.915	36696.760
634.043	36766.337
634.171	36794.404
634.299	36712.721
634.427	36724.625
634.555	36870.394
634.683	36757.221
634.812	36663.510
634.940	36642.317
635.068	36635.683
635.196	36636.067
635.324	36625.125
635.452	36601.615
635.580	36624.625
635.708	36481.615
635.837	36484.798
635.965	36381.962
636.093	36391.135
636.221	36261.817
636.349	36194.144
636.477	36142.327
636.605	36184.462
636.733	36140.356
636.862	36045.019
636.990	35973.673
637.118	35876.317
637.246	35843.856
637.374	35969.952
637.502	35724.817
637.630	35676.423
637.758	35637.337
637.887	35552.740
638.015	35594.163
638.143	35475.394
638.271	35331.356
638.399	35368.490
638.527	35269.683
638.655	35262.077
638.783	35229.567
638.912	35158.712
639.040	34990.019
639.168	34981.019
639.296	34883.981
639.424	35017.721
639.552	34840.654
639.680	34915.192
639.808	34794.663
639.937	34691.548
640.065	34713.692
640.193	34691.317
640.321	34798.135
640.449	34740.558
640.577	34634.798
640.705	34600.712
640.833	34547.260
640.962	34607.904
641.090	34551.827
641.218	34498.808
641.346	34614.635
641.474	34529.904
641.602	34506.731
641.730	34445.413
641.858	34436.490
641.987	34399.356
642.115	34560.490
642.243	34375.933
642.371	34536.010
642.499	34373.798
642.627	34457.163
642.755	34408.673
642.883	34377.519
643.012	34361.865
643.140	34403.462
643.268	34378.135
643.396	34358.125
643.524	34354.202
643.652	34415.288
643.780	34324.462
643.908	34329.577
644.037	34415.490
644.165	34409.788
644.293	34474.683
644.421	34298.096
644.549	34280.625
644.677	34325.144
644.805	34269.365
644.933	34228.154
645.062	34327.154
645.190	34420.423
645.318	34287.538
645.446	34199.740
645.574	34194.000
645.702	34223.288
645.830	34233.490
645.958	34115.413
646.087	34108.894
646.215	34090.837
646.343	34091.490
646.471	34230.423
646.599	34020.298
646.727	34055.106
646.855	33980.231
646.983	33987.567
647.112	33998.019
647.240	33904.048
647.368	33899.154
647.496	33882.577
647.624	33824.404
647.752	33775.452
647.880	33744.404
648.008	33705.096
648.137	33753.000
648.265	33664.096
648.393	33727.240
648.521	33587.000
648.649	33642.625
648.777	33517.760
648.905	33428.279
649.033	33484.019
649.162	33209.760
649.290	33126.221
649.418	33112.750
649.546	33215.702
649.674	33043.817
649.802	33001.942
649.930	32867.308
650.058	32837.058
650.187	32812.538
650.315	32689.885
650.443	32620.269
650.571	32494.827
650.699	32433.654
650.827	32436.019
650.955	32282.779
651.083	32337.067
651.212	32227.346
651.340	32105.462
651.468	32040.337
651.596	31967.933
651.724	31980.644
651.852	31903.356
651.980	31860.673
652.108	31710.077
652.237	31717.067
652.365	31528.452
652.493	31526.144
652.621	31457.587
652.749	31412.115
652.877	31325.942
653.005	31336.837
653.133	31222.760
653.262	31095.808
653.390	31028.308
653.518	31129.317
653.646	30949.702
653.774	30856.683
653.902	30889.779
654.030	30827.788
654.158	30706.106
654.287	30739.231
654.415	30563.721
654.543	30655.356
654.671	30484.971
654.799	30436.740
654.927	30377.894
655.055	30309.885
655.183	30213.827
655.312	30242.615
655.440	30111.019
655.568	30119.606
655.696	30025.192
655.824	29960.721
655.952	29923.279
656.080	29798.740
656.208	29781.837
656.337	29769.942
656.465	29922.433
656.593	29659.288
656.721	29649.808
656.849	29633.183
656.977	29392.087
657.105	29350.452
657.233	29402.981
657.362	29451.481
657.490	29318.375
657.618	29221.990
657.746	29155.740
657.874	28943.250
658.002	28899.519
658.130	28732.663
658.258	28722.452
658.387	28603.500
658.515	28578.413
658.643	28532.750
658.771	28550.308
658.899	28419.048
659.027	28377.308
659.155	28272.558
659.283	28180.702
659.412	28134.106
659.540	28117.317
659.668	28092.337
659.796	28119.212
659.924	28030.529
660.052	28111.462
660.180	28028.279
660.308	28091.885
660.437	27974.846
660.565	27809.885
660.693	27652.269
660.821	27787.490
660.949	27533.144
661.077	27574.567
661.205	27654.260
661.333	27455.692
661.462	27348.769
661.590	27401.894
661.718	27301.394
661.846	27278.481
661.974	27145.510
662.102	27135.000
662.230	27038.558
662.358	26890.385
662.487	26969.673
662.615	26871.135
662.743	26795.471
662.871	26782.981
662.999	26646.231
663.127	26601.010
663.255	26548.375
663.383	26586.135
663.512	26377.538
663.640	26419.654
663.768	26382.817
663.896	26316.702
664.024	26261.846
664.152	26197.356
664.280	26224.865
664.408	26083.010
664.537	26029.279
664.665	26031.269
664.793	25977.308
664.921	25894.885
665.049	25914.923
665.177	25788.212
665.305	25820.404
665.433	25750.913
665.562	25817.337
665.690	25666.356
665.818	25740.769
665.946	25526.096
666.074	25466.048
666.202	25438.404
666.330	25367.981
666.458	25645.308
666.587	25309.731
666.715	25266.712
666.843	25189.615
666.971	25092.712
667.099	25094.260
667.227	25114.721
667.355	25079.192
667.483	24955.865
667.612	24986.452
667.740	24880.490
667.868	24820.625
667.996	24768.702
668.124	24828.567
668.252	24815.038
668.380	24627.481
668.508	24638.885
668.637	24514.740
668.765	24499.567
668.893	24475.346
669.021	24375.587
669.149	24352.298
669.277	24249.587
669.405	24340.048
669.533	24256.635
669.662	24145.587
669.790	24095.087
669.918	24075.769
670.046	24145.442
670.174	23847.510
670.302	23844.260
670.430	23737.856
670.558	23774.731
670.687	23806.096
670.815	23598.808
670.943	23631.567
671.071	23489.231
671.199	23392.394
671.327	23381.058
671.455	23405.788
671.583	23239.683
671.712	23228.933
671.840	23218.000
671.968	23288.298
672.096	23193.452
672.224	22995.260
672.352	22946.798
672.480	22803.894
672.608	22790.183
672.737	22689.692
672.865	22646.154
672.993	22625.817
673.121	22521.952
673.249	22454.702
673.377	22345.712
673.505	22296.942
673.633	22336.298
673.762	22191.327
673.890	22182.490
674.018	22122.981
674.146	21999.115
674.274	22014.760
674.402	21939.115
674.530	21865.260
674.658	21725.394
674.787	21639.798
674.915	21772.827
675.043	21569.269
675.171	21501.173
675.299	21435.923
675.427	21298.683
675.555	21295.702
675.683	21228.519
675.812	21177.721
675.940	21100.269
676.068	20965.837
676.196	21023.510
676.324	20880.606
676.452	20815.067
676.580	20731.731
676.708	20665.221
676.837	20554.558
676.965	20646.240
677.093	20664.615
677.221	20427.154
677.349	20339.481
677.477	20338.087
677.605	20223.385
677.733	20167.144
677.862	20118.048
677.990	20036.548
678.118	20047.385
678.246	19933.173
678.374	19936.221
678.502	19770.740
678.630	19705.231
678.758	19679.173
678.887	19723.433
679.015	19487.087
679.143	19450.163
679.271	19403.010
679.399	19328.135
679.527	19248.942
679.655	19308.346
679.783	19161.712
679.912	19108.635
680.040	19244.779
680.168	18996.865
680.296	18948.894
680.424	18907.635
680.552	18837.510
680.680	18755.923
680.808	18715.923
680.937	18655.490
681.065	18672.394
681.193	18557.115
681.321	18455.231
681.449	18483.442
681.577	18431.077
681.705	18385.125
681.833	18333.894
681.962	18245.635
682.090	18184.538
682.218	18153.673
682.346	18138.731
682.474	18032.885
682.602	17999.654
682.730	18021.683
682.858	17864.240
682.987	17841.010
683.115	17855.567
683.243	17802.000
683.371	17749.452
683.499	17690.452
683.627	17650.942
683.755	17632.952
683.883	17570.019
684.012	17515.250
684.140	17456.577
684.268	17448.433
684.396	17454.154
684.524	17368.837
684.652	17351.115
684.780	17336.837
684.908	17278.683
685.037	17261.067
685.165	17166.452
685.293	17171.500
685.421	17110.010
685.549	17053.144
685.677	16953.923
685.805	17000.933
685.933	16905.202
686.062	16858.269
686.190	16808.452
686.318	16796.298
686.446	16703.731
686.574	16644.788
686.702	16661.798
686.830	16583.894
686.958	16637.221
687.087	16518.010
687.215	16489.087
687.343	16465.798
687.471	16584.250
687.599	16284.865
687.727	16262.394
687.855	16196.615
687.983	16155.375
688.112	16195.769
688.240	16138.250
688.368	16080.106
688.496	16030.327
688.624	15936.673
688.752	16066.115
688.880	15899.615
689.008	15824.067
689.137	15814.048
689.265	15707.923
689.393	15684.385
689.521	15680.000
689.649	15690.990
689.777	15589.163
689.905	15635.038
690.033	15456.923
690.162	15428.885
690.290	15455.471
690.418	15322.115
690.546	15383.683
690.674	15339.240
690.802	15265.750
690.930	15226.067
691.058	15152.875
691.187	15066.885
691.315	15009.231
691.443	14996.212
691.571	14963.048
691.699	14943.365
691.827	14851.394
691.955	14815.106
692.083	14767.971
692.212	14744.394
692.340	14654.760
692.468	14680.510
692.596	14630.625
692.724	14581.375
692.852	14568.798
692.980	14525.240
693.108	14545.933
693.237	14385.067
693.365	14341.971
693.493	14281.019
693.621	14271.740
693.749	14150.913
693.877	14185.904
694.005	14064.058
694.133	14010.827
694.262	14060.202
694.390	13886.365
694.518	13897.433
694.646	13867.962
694.774	13741.288
694.902	13729.769
695.030	13680.058
695.158	13610.644
695.287	13584.577
695.415	13542.125
695.543	13494.740
695.671	13430.798
695.799	13499.750
695.927	13357.990
696.055	13327.404
696.183	13241.673
696.312	13359.327
696.440	13206.538
696.568	13201.077
696.696	13013.760
696.824	12950.000
696.952	12920.019
697.080	12915.663
697.208	12806.933
697.337	12771.808
697.465	12719.010
697.593	12647.981
697.721	12764.202
697.849	12573.337
697.977	12615.144
698.105	12634.856
698.233	12512.567
698.362	12422.308
698.490	12503.413
698.618	12314.837
698.746	12270.202
698.874	12322.942
699.002	12245.538
699.130	12218.298
699.258	12131.769
699.387	12029.760
699.515	12046.356
699.643	12044.000
699.771	12060.808
699.899	11900.837
700.027	11843.981
700.155	11868.779
700.283	11713.077
700.412	11733.769
700.540	11727.202
700.668	11717.144
700.796	11585.087
700.924	11600.885
701.052	11589.375
701.180	11543.683
701.308	11435.279
701.437	11382.356
701.565	11342.971
701.693	11351.933
701.821	11496.577
701.949	11248.683
702.077	11222.462
702.205	11272.760
702.333	11133.606
702.462	11063.317
702.590	11103.827
702.718	10971.202
702.846	11113.990
702.974	10885.625
703.102	10895.596
703.230	10884.058
703.358	10754.394
703.487	10730.346
703.615	10691.606
703.743	10658.635
703.871	10650.673
703.999	10557.058
704.127	10517.250
704.255	10463.962
704.383	10468.558
704.512	10491.154
704.640	10424.058
704.768	10429.721
704.896	10292.365
705.024	10189.471
705.152	10211.000
705.280	10245.548
705.408	10073.606
705.537	10050.019
705.665	10047.933
705.793	9987.538
705.921	9950.298
706.049	9853.760
706.177	9894.298
706.305	9784.240
706.433	9802.788
706.562	9748.635
706.690	9691.875
706.818	9684.442
706.946	9583.413
707.074	9536.990
707.202	9483.779
707.330	9436.077
707.458	9427.375
707.587	9374.587
707.715	9371.673
707.843	9346.510
707.971	9349.183
708.099	9211.250
708.227	9181.087
708.355	9146.106
708.483	9103.885
708.612	9061.702
708.740	9017.500
708.868	8957.856
708.996	8980.183
709.124	8985.010
709.252	8897.115
709.380	8894.404
709.508	8815.462
709.637	8825.471
709.765	8750.856
709.893	8791.644
710.021	8694.288
710.149	8731.721
710.277	8595.692
710.405	8588.462
710.533	8548.837
710.662	8501.442
710.790	8618.279
710.918	8450.913
711.046	8469.183
711.174	8399.913
711.302	8416.885
711.430	8332.212
711.558	8350.606
711.687	8273.279
711.815	8227.827
711.943	8187.163
712.071	8164.337
712.199	8176.375
712.327	8216.817
712.455	8055.808
712.583	8223.404
712.712	8062.942
712.840	8085.519
712.968	7965.308
713.096	7922.327
713.224	7883.125
713.352	7869.817
713.480	7788.433
713.608	7777.490
713.737	7751.644
713.865	7783.779
713.993	7736.327
714.121	7710.096
714.249	7625.394
714.377	7605.077
714.505	7582.413
714.633	7586.221
714.762	7512.221
714.890	7520.529
715.018	7459.615
715.146	7508.615
715.274	7399.337
715.402	7389.087
715.530	7349.279
715.658	7399.317
715.787	7306.827
715.915	7398.712
716.043	7232.721
716.171	7373.952
716.299	7191.702
716.427	7248.240
716.555	7145.817
716.683	7127.769
716.812	7090.163
716.940	7067.240
717.068	7010.990
717.196	7173.423
717.324	7016.048
717.452	6953.625
717.580	6997.106
717.708	6865.490
717.837	6883.433
717.965	6893.144
718.093	6837.942
718.221	6851.692
718.349	6873.894
718.477	6740.356
718.605	6827.452
718.733	6730.808
718.862	6749.327
718.990	6620.135
719.118	6685.635
719.246	6604.038
719.374	6575.298
719.502	6607.663
719.630	6671.558
719.758	6482.606
719.887	6445.010
720.015	6473.490
