90_80_90_Pol_at_750.00nm_cut_at_1179.00Y_01.dat
03.07.2023
11:24:22
cut middle at Y: 1179.00
top cursor: 1231 down cursor: 1127 mean of: 104 lines , 2560 datapoints
wavelength(nm)	intensity[arb. units]
585.996	9771.529
586.124	9575.702
586.252	9577.202
586.380	9597.971
586.508	9603.327
586.637	9706.490
586.765	9672.231
586.893	9691.615
587.021	9743.654
587.149	9746.317
587.277	9783.740
587.405	9773.327
587.533	9816.192
587.662	9888.058
587.790	9836.981
587.918	9851.587
588.046	9801.788
588.174	9872.567
588.302	9867.587
588.430	9871.375
588.558	9911.462
588.687	9912.865
588.815	9893.423
588.943	9923.788
589.071	9888.298
589.199	9924.202
589.327	9905.913
589.455	10003.115
589.583	9934.212
589.712	9913.567
589.840	9928.683
589.968	9934.856
590.096	9937.837
590.224	9930.433
590.352	9992.548
590.480	9948.673
590.608	9939.288
590.737	9983.817
590.865	10038.538
590.993	9911.413
591.121	9960.279
591.249	9960.058
591.377	9968.462
591.505	10092.606
591.633	9958.644
591.762	10003.721
591.890	9993.856
592.018	10077.596
592.146	10032.433
592.274	10020.769
592.402	10013.538
592.530	10202.644
592.658	10141.933
592.787	10112.769
592.915	10160.587
593.043	10071.808
593.171	10132.452
593.299	10126.375
593.427	10135.019
593.555	10151.212
593.683	10160.894
593.812	10158.625
593.940	10219.702
594.068	10230.702
594.196	10194.510
594.324	10238.404
594.452	10436.356
594.580	10299.663
594.708	10333.135
594.837	10339.875
594.965	10426.837
595.093	10422.394
595.221	10472.683
595.349	10453.827
595.477	10463.913
595.605	10493.288
595.733	10512.577
595.862	10536.510
595.990	10554.510
596.118	10617.442
596.246	10669.942
596.374	10592.096
596.502	10632.212
596.630	10651.183
596.758	10658.894
596.887	10681.135
597.015	10692.462
597.143	10722.663
597.271	10709.423
597.399	10780.894
597.527	10735.510
597.655	10751.308
597.783	10773.577
597.912	10785.846
598.040	10793.442
598.168	10777.510
598.296	10742.519
598.424	10952.260
598.552	10783.115
598.680	10800.000
598.808	10853.048
598.937	10818.577
599.065	10832.029
599.193	10891.817
599.321	10815.846
599.449	10798.788
599.577	10807.500
599.705	10835.394
599.833	10834.385
599.962	10801.942
600.090	10841.817
600.218	10816.135
600.346	10846.740
600.474	10803.942
600.602	10805.808
600.730	10809.769
600.858	10819.856
600.987	10918.202
601.115	10838.106
601.243	10928.615
601.371	10950.798
601.499	10941.875
601.627	10959.558
601.755	10902.971
601.883	10988.683
602.012	10873.471
602.140	10964.577
602.268	10973.913
602.396	11098.038
602.524	11021.087
602.652	11122.663
602.780	11122.356
602.908	11104.433
603.037	11200.269
603.165	11188.510
603.293	11226.856
603.421	11243.856
603.549	11261.635
603.677	11319.894
603.805	11333.606
603.933	11379.144
604.062	11451.240
604.190	11503.067
604.318	11500.615
604.446	11522.212
604.574	11588.231
604.702	11649.846
604.830	11596.029
604.958	11647.490
605.087	11731.587
605.215	11767.971
605.343	11867.298
605.471	11841.519
605.599	11842.442
605.727	11964.837
605.855	11958.798
605.983	11999.038
606.112	12040.260
606.240	12045.683
606.368	12104.673
606.496	12036.875
606.624	12176.683
606.752	12127.394
606.880	12223.663
607.008	12191.721
607.137	12178.788
607.265	12313.058
607.393	12274.808
607.521	12317.356
607.649	12262.846
607.777	12285.317
607.905	12329.212
608.033	12320.077
608.162	12338.702
608.290	12286.913
608.418	12447.337
608.546	12372.308
608.674	12447.808
608.802	12343.183
608.930	12373.490
609.058	12324.337
609.187	12339.548
609.315	12368.288
609.443	12353.913
609.571	12441.913
609.699	12332.125
609.827	12438.288
609.955	12404.202
610.083	12339.058
610.212	12352.731
610.340	12309.519
610.468	12347.904
610.596	12327.846
610.724	12324.721
610.852	12350.587
610.980	12358.385
611.108	12299.260
611.237	12353.183
611.365	12341.010
611.493	12349.288
611.621	12336.933
611.749	12384.106
611.877	12414.654
612.005	12346.615
612.133	12405.846
612.262	12420.683
612.390	12477.538
612.518	12489.240
612.646	12451.029
612.774	12532.837
612.902	12531.615
613.030	12562.510
613.158	12543.510
613.287	12595.221
613.415	12526.529
613.543	12566.394
613.671	12619.779
613.799	12650.154
613.927	12675.837
614.055	12730.827
614.183	12713.510
614.312	12720.240
614.440	12887.913
614.568	12835.913
614.696	12873.394
614.824	12877.875
614.952	12914.875
615.080	12931.779
615.208	12995.471
615.337	13098.471
615.465	13003.423
615.593	13103.702
615.721	13092.817
615.849	13158.048
615.977	13121.635
616.105	13169.731
616.233	13233.067
616.362	13257.769
616.490	13267.673
616.618	13340.462
616.746	13461.394
616.874	13384.913
617.002	13464.240
617.130	13433.135
617.258	13396.731
617.387	13439.538
617.515	13516.029
617.643	13499.683
617.771	13627.096
617.899	13525.558
618.027	13609.875
618.155	13637.548
618.283	13669.288
618.412	13673.346
618.540	13705.894
618.668	13707.048
618.796	13729.317
618.924	13733.856
619.052	13725.788
619.180	13732.808
619.308	13715.837
619.437	13756.827
619.565	13764.490
619.693	13726.846
619.821	13811.375
619.949	13779.192
620.077	13771.279
620.205	13832.731
620.333	13848.606
620.462	13769.798
620.590	13838.721
620.718	13845.135
620.846	13877.740
620.974	13874.404
621.102	13908.981
621.230	13928.692
621.358	14017.721
621.487	13890.962
621.615	13923.846
621.743	13838.106
621.871	13927.000
621.999	13862.837
622.127	13900.423
622.255	13862.365
622.383	13851.279
622.512	13859.740
622.640	13873.904
622.768	13917.529
622.896	13982.990
623.024	13965.798
623.152	13947.000
623.280	14002.250
623.408	13920.760
623.537	13970.192
623.665	13922.894
623.793	14003.404
623.921	13971.885
624.049	13955.913
624.177	13971.952
624.305	13958.654
624.433	14006.721
624.562	13979.750
624.690	14087.500
624.818	13932.750
624.946	13959.615
625.074	13941.452
625.202	13991.010
625.330	13968.433
625.458	14090.721
625.587	13987.981
625.715	14075.481
625.843	14012.548
625.971	14056.346
626.099	14052.962
626.227	14072.183
626.355	14037.279
626.483	14097.000
626.612	14049.221
626.740	14070.385
626.868	14046.846
626.996	14148.298
627.124	14104.221
627.252	14096.106
627.380	14119.510
627.508	14066.279
627.637	14154.587
627.765	14204.442
627.893	14143.471
628.021	14289.106
628.149	14119.115
628.277	14253.288
628.405	14204.827
628.533	14191.010
628.662	14226.327
628.790	14304.269
628.918	14265.365
629.046	14405.519
629.174	14261.212
629.302	14297.490
629.430	14233.413
629.558	14363.010
629.687	14296.067
629.815	14369.462
629.943	14449.981
630.071	14403.942
630.199	14383.798
630.327	14421.462
630.455	14434.702
630.583	14443.587
630.712	14477.029
630.840	14456.923
630.968	14454.058
631.096	14496.144
631.224	14530.894
631.352	14674.096
631.480	14542.894
631.608	14706.558
631.737	14537.433
631.865	14704.769
631.993	14658.712
632.121	14792.067
632.249	14650.212
632.377	14660.404
632.505	14661.837
632.633	14716.327
632.762	14641.115
632.890	14649.990
633.018	14687.288
633.146	14674.202
633.274	14661.192
633.402	14722.615
633.530	14690.952
633.658	14679.846
633.787	14663.250
633.915	14674.846
634.043	14700.192
634.171	14706.010
634.299	14712.144
634.427	14688.913
634.555	14915.231
634.683	14700.029
634.812	14655.519
634.940	14649.288
635.068	14655.865
635.196	14624.096
635.324	14637.260
635.452	14613.673
635.580	14703.135
635.708	14535.000
635.837	14585.644
635.965	14564.202
636.093	14503.356
636.221	14492.067
636.349	14429.173
636.477	14424.587
636.605	14486.712
636.733	14425.221
636.862	14424.288
636.990	14362.279
637.118	14367.413
637.246	14318.337
637.374	14427.750
637.502	14218.596
637.630	14231.096
637.758	14223.779
637.887	14170.500
638.015	14249.337
638.143	14168.740
638.271	14085.837
638.399	14123.913
638.527	14064.327
638.655	14034.952
638.783	14039.173
638.912	14071.808
639.040	13988.894
639.168	13946.981
639.296	13923.663
639.424	13961.404
639.552	13916.029
639.680	13978.923
639.808	13890.760
639.937	13855.279
640.065	13823.423
640.193	13806.279
640.321	13915.288
640.449	13861.048
640.577	13792.538
640.705	13781.558
640.833	13737.163
640.962	13861.567
641.090	13705.058
641.218	13732.183
641.346	13803.817
641.474	13733.990
641.602	13726.529
641.730	13707.221
641.858	13703.327
641.987	13661.221
642.115	13870.442
642.243	13698.250
642.371	13823.365
642.499	13678.250
642.627	13741.106
642.755	13663.404
642.883	13679.279
643.012	13659.750
643.140	13754.779
643.268	13724.077
643.396	13648.904
643.524	13680.019
643.652	13768.923
643.780	13649.673
643.908	13650.413
644.037	13756.423
644.165	13711.654
644.293	13820.529
644.421	13618.192
644.549	13663.740
644.677	13685.298
644.805	13660.471
644.933	13634.837
645.062	13635.346
645.190	13804.510
645.318	13659.740
645.446	13591.654
645.574	13610.279
645.702	13647.087
645.830	13637.423
645.958	13560.510
646.087	13532.490
646.215	13533.875
646.343	13575.452
646.471	13662.837
646.599	13505.067
646.727	13479.269
646.855	13520.923
646.983	13481.712
647.112	13567.115
647.240	13464.327
647.368	13497.846
647.496	13420.298
647.624	13462.337
647.752	13435.712
647.880	13373.202
648.008	13379.510
648.137	13408.144
648.265	13331.471
648.393	13411.327
648.521	13325.202
648.649	13421.337
648.777	13362.038
648.905	13272.663
649.033	13343.269
649.162	13159.587
649.290	13118.000
649.418	13134.702
649.546	13286.856
649.674	13109.990
649.802	13069.865
649.930	13021.106
650.058	12978.808
650.187	13029.433
650.315	12950.817
650.443	12991.317
650.571	12899.385
650.699	12860.548
650.827	12835.904
650.955	12740.269
651.083	12841.029
651.212	12744.798
651.340	12774.029
651.468	12679.971
651.596	12683.702
651.724	12695.077
651.852	12601.500
651.980	12575.596
652.108	12528.731
652.237	12516.712
652.365	12452.500
652.493	12451.587
652.621	12379.740
652.749	12396.500
652.877	12413.288
653.005	12411.827
653.133	12292.394
653.262	12275.548
653.390	12235.962
653.518	12374.596
653.646	12143.596
653.774	12165.788
653.902	12219.567
654.030	12151.413
654.158	12068.952
654.287	12110.721
654.415	12067.202
654.543	12044.279
654.671	12010.548
654.799	11974.327
654.927	11909.202
655.055	11853.923
655.183	11893.490
655.312	11871.058
655.440	11806.798
655.568	11815.644
655.696	11822.288
655.824	11769.038
655.952	11714.048
656.080	11679.990
656.208	11694.577
656.337	11706.346
656.465	11828.471
656.593	11596.971
656.721	11621.577
656.849	11670.192
656.977	11461.808
657.105	11520.077
657.233	11487.250
657.362	11508.144
657.490	11466.962
657.618	11415.596
657.746	11416.038
657.874	11342.952
658.002	11280.481
658.130	11224.865
658.258	11251.558
658.387	11171.788
658.515	11153.019
658.643	11156.567
658.771	11164.375
658.899	11077.788
659.027	11080.635
659.155	11052.702
659.283	10980.240
659.412	10989.606
659.540	10968.250
659.668	10972.760
659.796	11014.192
659.924	10951.558
660.052	11013.442
660.180	10893.337
660.308	10952.538
660.437	10912.000
660.565	10880.490
660.693	10749.519
660.821	10916.010
660.949	10735.144
661.077	10754.192
661.205	10863.769
661.333	10675.375
661.462	10642.125
661.590	10712.846
661.718	10603.885
661.846	10611.808
661.974	10572.260
662.102	10550.346
662.230	10535.077
662.358	10385.654
662.487	10476.567
662.615	10441.115
662.743	10422.606
662.871	10410.183
662.999	10330.702
663.127	10334.317
663.255	10288.981
663.383	10399.779
663.512	10197.087
663.640	10290.788
663.768	10261.529
663.896	10214.144
664.024	10169.721
664.152	10137.587
664.280	10212.798
664.408	10095.865
664.537	10061.365
664.665	10085.663
664.793	10079.183
664.921	10000.817
665.049	10056.250
665.177	9950.673
665.305	9978.048
665.433	9968.548
665.562	10087.510
665.690	9935.779
665.818	10055.856
665.946	9825.115
666.074	9839.567
666.202	9813.173
666.330	9766.692
666.458	10171.750
666.587	9753.250
666.715	9753.712
666.843	9687.096
666.971	9718.346
667.099	9707.048
667.227	9751.317
667.355	9735.606
667.483	9626.038
667.612	9645.385
667.740	9620.990
667.868	9595.385
667.996	9550.865
668.124	9591.952
668.252	9635.769
668.380	9482.087
668.508	9512.654
668.637	9461.615
668.765	9490.327
668.893	9452.462
669.021	9379.577
669.149	9470.144
669.277	9329.923
669.405	9466.269
669.533	9405.019
669.662	9297.510
669.790	9297.106
669.918	9314.952
670.046	9378.712
670.174	9212.635
670.302	9163.971
670.430	9169.452
670.558	9233.308
670.687	9320.308
670.815	9129.760
670.943	9128.625
671.071	9024.567
671.199	9015.269
671.327	9021.846
671.455	9034.221
671.583	8968.510
671.712	8904.721
671.840	8977.221
671.968	9053.788
672.096	9030.875
672.224	8812.385
672.352	8781.433
672.480	8752.183
672.608	8776.404
672.737	8726.490
672.865	8673.644
672.993	8669.442
673.121	8625.894
673.249	8607.029
673.377	8567.413
673.505	8555.846
673.633	8573.673
673.762	8465.644
673.890	8502.481
674.018	8473.000
674.146	8430.644
674.274	8418.452
674.402	8434.010
674.530	8370.865
674.658	8332.644
674.787	8293.654
674.915	8412.962
675.043	8266.529
675.171	8263.990
675.299	8135.817
675.427	8150.702
675.555	8139.288
675.683	8148.462
675.812	8097.712
675.940	8062.192
676.068	7984.837
676.196	8018.827
676.324	7966.375
676.452	7917.394
676.580	7886.058
676.708	7879.087
676.837	7835.529
676.965	7957.740
677.093	7934.817
677.221	7804.337
677.349	7733.875
677.477	7783.010
677.605	7631.019
677.733	7651.433
677.862	7657.125
677.990	7650.490
678.118	7666.038
678.246	7577.346
678.374	7610.202
678.502	7536.894
678.630	7449.423
678.758	7478.240
678.887	7589.471
679.015	7363.808
679.143	7342.875
679.271	7326.471
679.399	7318.606
679.527	7312.865
679.655	7362.125
679.783	7212.846
679.912	7211.240
680.040	7365.827
680.168	7175.663
680.296	7197.269
680.424	7161.269
680.552	7086.317
680.680	7069.683
680.808	7024.981
680.937	7000.827
681.065	7072.817
681.193	6975.952
681.321	6956.596
681.449	6997.769
681.577	6962.125
681.705	6907.712
681.833	6912.894
681.962	6889.904
682.090	6831.529
682.218	6830.154
682.346	6844.452
682.474	6790.519
682.602	6770.750
682.730	6788.096
682.858	6725.654
682.987	6730.981
683.115	6742.654
683.243	6677.433
683.371	6682.481
683.499	6634.452
683.627	6670.337
683.755	6627.558
683.883	6601.798
684.012	6615.606
684.140	6559.683
684.268	6558.481
684.396	6580.885
684.524	6506.125
684.652	6529.404
684.780	6536.394
684.908	6509.394
685.037	6495.885
685.165	6460.163
685.293	6538.538
685.421	6445.192
685.549	6434.413
685.677	6385.635
685.805	6421.471
685.933	6384.913
686.062	6383.000
686.190	6317.894
686.318	6313.087
686.446	6272.817
686.574	6236.558
686.702	6313.067
686.830	6219.356
686.958	6291.933
687.087	6189.250
687.215	6195.519
687.343	6196.019
687.471	6335.923
687.599	6090.394
687.727	6096.683
687.855	6088.913
687.983	6054.567
688.112	6097.144
688.240	6037.019
688.368	6039.433
688.496	5986.990
688.624	5988.471
688.752	6127.587
688.880	5974.875
689.008	5939.731
689.137	5929.144
689.265	5874.865
689.393	5874.779
689.521	5876.019
689.649	5950.577
689.777	5856.048
689.905	5893.981
690.033	5764.000
690.162	5775.942
690.290	5794.904
690.418	5702.308
690.546	5766.769
690.674	5764.365
690.802	5775.577
690.930	5712.308
691.058	5703.317
691.187	5630.760
691.315	5592.250
691.443	5612.048
691.571	5631.750
691.699	5568.635
691.827	5543.490
691.955	5529.356
692.083	5515.240
692.212	5525.529
692.340	5487.163
692.468	5533.990
692.596	5501.221
692.724	5452.692
692.852	5451.067
692.980	5436.625
693.108	5496.885
693.237	5371.144
693.365	5348.933
693.493	5327.750
693.621	5341.356
693.749	5258.144
693.877	5344.962
694.005	5252.615
694.133	5231.510
694.262	5294.135
694.390	5203.173
694.518	5181.702
694.646	5185.904
694.774	5123.885
694.902	5111.856
695.030	5115.615
695.158	5079.769
695.287	5083.596
695.415	5053.125
695.543	5063.404
695.671	4978.529
695.799	5097.240
695.927	4993.356
696.055	5013.529
696.183	4929.173
696.312	5081.731
696.440	4952.481
696.568	4934.490
696.696	4836.894
696.824	4784.625
696.952	4809.413
697.080	4811.654
697.208	4745.692
697.337	4764.298
697.465	4754.212
697.593	4683.183
697.721	4813.279
697.849	4687.500
697.977	4726.106
698.105	4734.288
698.233	4672.519
698.362	4613.894
698.490	4730.760
698.618	4552.212
698.746	4538.654
698.874	4622.702
699.002	4561.048
699.130	4563.279
699.258	4511.606
699.387	4447.462
699.515	4484.337
699.643	4496.250
699.771	4549.183
699.899	4424.625
700.027	4374.154
700.155	4444.385
700.283	4315.510
700.412	4328.865
700.540	4375.346
700.668	4432.029
700.796	4306.038
700.924	4349.279
701.052	4330.654
701.180	4276.615
701.308	4231.115
701.437	4188.615
701.565	4194.000
701.693	4235.769
701.821	4389.827
701.949	4144.163
702.077	4127.788
702.205	4199.058
702.333	4114.663
702.462	4079.558
702.590	4145.202
702.718	4025.865
702.846	4218.587
702.974	3987.558
703.102	4016.981
703.230	4035.019
703.358	3955.413
703.487	3952.221
703.615	3940.192
703.743	3904.038
703.871	3915.327
703.999	3886.000
704.127	3866.202
704.255	3815.846
704.383	3864.327
704.512	3900.240
704.640	3868.442
704.768	3898.712
704.896	3776.346
705.024	3710.279
705.152	3764.250
705.280	3785.673
705.408	3693.183
705.537	3696.558
705.665	3691.673
705.793	3673.760
705.921	3661.567
706.049	3634.317
706.177	3665.038
706.305	3578.769
706.433	3618.163
706.562	3582.423
706.690	3607.471
706.818	3579.173
706.946	3516.471
707.074	3493.817
707.202	3476.683
707.330	3484.760
707.458	3468.558
707.587	3420.606
707.715	3466.260
707.843	3465.856
707.971	3457.096
708.099	3368.115
708.227	3375.933
708.355	3384.952
708.483	3351.019
708.612	3367.154
708.740	3301.933
708.868	3317.010
708.996	3367.250
709.124	3322.837
709.252	3301.413
709.380	3299.327
709.508	3249.904
709.637	3276.048
709.765	3241.154
709.893	3255.692
710.021	3198.317
710.149	3299.625
710.277	3168.462
710.405	3174.231
710.533	3171.163
710.662	3129.173
710.790	3259.212
710.918	3119.798
711.046	3151.962
711.174	3099.298
711.302	3126.490
711.430	3090.587
711.558	3124.221
711.687	3072.346
711.815	3042.250
711.943	3023.548
712.071	3045.106
712.199	3025.587
712.327	3094.856
712.455	2991.154
712.583	3129.577
712.712	2999.260
712.840	3039.827
712.968	2946.760
713.096	2929.644
713.224	2924.663
713.352	2927.865
713.480	2867.077
713.608	2886.846
713.737	2836.971
713.865	2894.356
713.993	2866.404
714.121	2847.115
714.249	2820.000
714.377	2820.212
714.505	2789.337
714.633	2822.894
714.762	2774.192
714.890	2790.663
715.018	2767.837
715.146	2793.817
715.274	2735.567
715.402	2721.615
715.530	2711.865
715.658	2739.452
715.787	2690.298
715.915	2800.346
716.043	2680.625
716.171	2794.990
716.299	2635.394
716.427	2716.721
716.555	2626.644
716.683	2637.663
716.812	2606.452
716.940	2599.125
717.068	2590.365
717.196	2750.462
717.324	2601.644
717.452	2578.481
717.580	2623.452
717.708	2545.654
717.837	2566.077
717.965	2592.750
718.093	2540.923
718.221	2557.144
718.349	2594.865
718.477	2492.904
718.605	2575.106
718.733	2521.663
718.862	2525.519
718.990	2497.760
719.118	2547.077
719.246	2464.163
719.374	2465.375
719.502	2487.981
719.630	2547.212
719.758	2456.894
719.887	2429.010
720.015	2459.510
720.143	2462.192
720.271	2425.981
720.399	2455.288
720.527	2402.798
720.655	2448.625
720.783	2414.077
720.912	2401.663
721.040	2387.288
721.168	2400.135
721.296	2371.529
721.424	2372.971
721.552	2351.577
721.680	2357.750
721.808	2369.933
721.937	2346.183
722.065	2329.144
722.193	2321.481
722.321	2337.202
722.449	2309.096
722.577	2296.846
