90_80_0_Pol_at_750.00nm_cut_at_1179.00Y_01.dat
03.07.2023
11:25:18
cut middle at Y: 1179.00
top cursor: 1231 down cursor: 1127 mean of: 104 lines , 2560 datapoints
wavelength(nm)	intensity[arb. units]
585.996	9599.731
586.124	9441.654
586.252	9404.471
586.380	9461.981
586.508	9471.981
586.637	9619.615
586.765	9558.904
586.893	9598.433
587.021	9613.510
587.149	9629.558
587.277	9650.385
587.405	9649.000
587.533	9683.481
587.662	9766.298
587.790	9713.798
587.918	9698.327
588.046	9689.288
588.174	9717.173
588.302	9706.317
588.430	9721.058
588.558	9747.010
588.687	9744.048
588.815	9770.760
588.943	9752.106
589.071	9762.067
589.199	9787.942
589.327	9714.404
589.455	9839.471
589.583	9744.067
589.712	9766.471
589.840	9736.731
589.968	9761.740
590.096	9763.394
590.224	9728.567
590.352	9815.029
590.480	9735.827
590.608	9734.087
590.737	9754.942
590.865	9865.202
590.993	9731.673
591.121	9757.125
591.249	9750.788
591.377	9781.606
591.505	9887.298
591.633	9800.144
591.762	9788.183
591.890	9825.817
592.018	9886.029
592.146	9802.048
592.274	9848.529
592.402	9820.500
592.530	10006.663
592.658	9888.471
592.787	9908.538
592.915	9956.731
593.043	9858.240
593.171	9904.933
593.299	9887.971
593.427	9913.952
593.555	9954.260
593.683	9944.587
593.812	9967.500
593.940	9991.298
594.068	9994.423
594.196	9973.423
594.324	10020.635
594.452	10251.442
594.580	10102.577
594.708	10144.933
594.837	10164.827
594.965	10230.558
595.093	10182.577
595.221	10240.808
595.349	10239.923
595.477	10248.962
595.605	10301.163
595.733	10285.000
595.862	10357.856
595.990	10361.317
596.118	10398.413
596.246	10449.769
596.374	10401.212
596.502	10421.798
596.630	10435.644
596.758	10436.654
596.887	10440.260
597.015	10468.798
597.143	10499.519
597.271	10488.817
597.399	10563.567
597.527	10531.510
597.655	10544.798
597.783	10565.240
597.912	10543.519
598.040	10588.019
598.168	10567.740
598.296	10564.683
598.424	10717.058
598.552	10594.260
598.680	10586.558
598.808	10689.202
598.937	10600.077
599.065	10586.510
599.193	10653.058
599.321	10647.269
599.449	10580.606
599.577	10607.798
599.705	10622.692
599.833	10596.731
599.962	10584.731
600.090	10601.808
600.218	10594.087
600.346	10604.250
600.474	10595.827
600.602	10569.385
600.730	10607.058
600.858	10620.337
600.987	10684.250
601.115	10589.913
601.243	10693.490
601.371	10719.625
601.499	10699.913
601.627	10708.663
601.755	10691.933
601.883	10707.029
602.012	10679.115
602.140	10754.894
602.268	10708.077
602.396	10848.250
602.524	10750.500
602.652	10815.173
602.780	10796.231
602.908	10839.625
603.037	10914.404
603.165	10920.135
603.293	10966.135
603.421	10985.808
603.549	10959.933
603.677	11032.990
603.805	11056.029
603.933	11073.500
604.062	11128.288
604.190	11206.125
604.318	11211.740
604.446	11179.125
604.574	11275.962
604.702	11323.375
604.830	11280.673
604.958	11297.596
605.087	11358.077
605.215	11434.587
605.343	11540.288
605.471	11504.260
605.599	11522.385
605.727	11611.923
605.855	11625.740
605.983	11664.462
606.112	11674.173
606.240	11671.981
606.368	11666.010
606.496	11706.385
606.624	11773.423
606.752	11757.971
606.880	11829.452
607.008	11787.212
607.137	11789.096
607.265	11896.981
607.393	11852.625
607.521	11930.490
607.649	11871.096
607.777	11874.952
607.905	11905.673
608.033	11863.356
608.162	11865.740
608.290	11884.231
608.418	11990.587
608.546	11944.048
608.674	11981.394
608.802	11922.144
608.930	11937.750
609.058	11882.702
609.187	11892.442
609.315	11907.067
609.443	11909.529
609.571	12042.683
609.699	11906.019
609.827	12004.356
609.955	11902.510
610.083	11854.827
610.212	11870.894
610.340	11879.183
610.468	11856.558
610.596	11887.260
610.724	11848.548
610.852	11913.856
610.980	11912.250
611.108	11834.442
611.237	11874.471
611.365	11901.625
611.493	11892.077
611.621	11884.000
611.749	11891.106
611.877	11973.144
612.005	11912.837
612.133	11960.817
612.262	11962.106
612.390	11995.663
612.518	12045.577
612.646	12001.202
612.774	12090.779
612.902	12098.096
613.030	12083.933
613.158	12079.837
613.287	12170.673
613.415	12104.865
613.543	12091.452
613.671	12145.981
613.799	12188.173
613.927	12203.135
614.055	12250.625
614.183	12250.038
614.312	12235.615
614.440	12425.798
614.568	12367.606
614.696	12388.827
614.824	12428.779
614.952	12432.567
615.080	12448.712
615.208	12537.750
615.337	12598.885
615.465	12540.240
615.593	12593.231
615.721	12570.077
615.849	12699.990
615.977	12658.077
616.105	12707.587
616.233	12731.856
616.362	12765.721
616.490	12797.173
616.618	12815.106
616.746	12923.500
616.874	12903.500
617.002	12890.308
617.130	12904.462
617.258	12923.308
617.387	12923.904
617.515	12970.990
617.643	13001.356
617.771	13034.183
617.899	13002.769
618.027	13057.827
618.155	13101.173
618.283	13061.673
618.412	13100.096
618.540	13205.356
618.668	13136.952
618.796	13148.308
618.924	13079.365
619.052	13140.346
619.180	13145.010
619.308	13120.231
619.437	13129.279
619.565	13187.442
619.693	13153.154
619.821	13211.327
619.949	13118.875
620.077	13166.192
620.205	13216.413
620.333	13245.692
620.462	13190.038
620.590	13234.385
620.718	13240.538
620.846	13224.481
620.974	13247.500
621.102	13299.442
621.230	13256.923
621.358	13372.952
621.487	13221.115
621.615	13295.692
621.743	13201.058
621.871	13265.846
621.999	13185.567
622.127	13229.135
622.255	13195.875
622.383	13218.635
622.512	13191.433
622.640	13222.087
622.768	13248.692
622.896	13321.625
623.024	13273.269
623.152	13241.260
623.280	13309.663
623.408	13237.490
623.537	13272.548
623.665	13213.663
623.793	13283.481
623.921	13272.587
624.049	13252.683
624.177	13223.779
624.305	13281.529
624.433	13287.760
624.562	13307.375
624.690	13426.490
624.818	13219.625
624.946	13264.058
625.074	13227.952
625.202	13215.423
625.330	13242.154
625.458	13360.913
625.587	13276.846
625.715	13335.096
625.843	13281.029
625.971	13321.606
626.099	13294.250
626.227	13319.769
626.355	13241.423
626.483	13346.865
626.612	13290.654
626.740	13355.808
626.868	13301.663
626.996	13351.221
627.124	13305.135
627.252	13303.913
627.380	13334.087
627.508	13306.452
627.637	13366.635
627.765	13393.365
627.893	13420.740
628.021	13452.048
628.149	13360.212
628.277	13473.625
628.405	13429.500
628.533	13414.952
628.662	13435.462
628.790	13551.260
628.918	13441.019
629.046	13626.875
629.174	13483.798
629.302	13516.240
629.430	13473.740
629.558	13552.673
629.687	13501.913
629.815	13593.962
629.943	13684.769
630.071	13600.779
630.199	13599.452
630.327	13656.817
630.455	13667.558
630.583	13687.317
630.712	13699.375
630.840	13722.635
630.968	13694.279
631.096	13706.750
631.224	13779.721
631.352	13868.644
631.480	13796.212
631.608	13973.250
631.737	13794.221
631.865	13916.365
631.993	13902.337
632.121	14019.606
632.249	13901.125
632.377	13916.846
632.505	13891.317
632.633	13952.452
632.762	13854.048
632.890	13915.029
633.018	13917.154
633.146	13902.240
633.274	13884.442
633.402	13935.702
633.530	13938.029
633.658	13910.519
633.787	13895.365
633.915	13888.740
634.043	13966.192
634.171	13913.144
634.299	13909.048
634.427	13888.788
634.555	14129.567
634.683	13913.317
634.812	13887.663
634.940	13834.519
635.068	13856.875
635.196	13844.500
635.324	13828.721
635.452	13831.250
635.580	13941.144
635.708	13769.183
635.837	13838.212
635.965	13784.760
636.093	13746.644
636.221	13709.769
636.349	13680.356
636.477	13616.010
636.605	13705.423
636.733	13652.288
636.862	13628.846
636.990	13611.692
637.118	13618.500
637.246	13554.433
637.374	13668.760
637.502	13526.462
637.630	13500.144
637.758	13502.567
637.887	13444.942
638.015	13575.712
638.143	13486.404
638.271	13392.837
638.399	13446.981
638.527	13365.337
638.655	13361.490
638.783	13347.125
638.912	13401.827
639.040	13301.115
639.168	13286.413
639.296	13233.894
639.424	13328.067
639.552	13240.817
639.680	13297.298
639.808	13218.346
639.937	13163.837
640.065	13165.404
640.193	13172.798
640.321	13235.337
640.449	13222.808
640.577	13135.298
640.705	13158.913
640.833	13134.029
640.962	13218.577
641.090	13084.269
641.218	13100.885
641.346	13166.192
641.474	13099.067
641.602	13069.750
641.730	13066.317
641.858	13055.183
641.987	13060.346
642.115	13215.798
642.243	13085.760
642.371	13213.144
642.499	13028.481
642.627	13142.702
642.755	13023.077
642.883	13053.692
643.012	13031.173
643.140	13127.077
643.268	13085.519
643.396	12998.635
643.524	13044.413
643.652	13145.288
643.780	13000.635
643.908	13005.913
644.037	13113.231
644.165	13097.163
644.293	13209.981
644.421	12977.933
644.549	13059.692
644.677	13042.904
644.805	13002.981
644.933	12975.240
645.062	13047.096
645.190	13189.750
645.318	13061.625
645.446	12964.702
645.574	12955.144
645.702	13023.385
645.830	13042.933
645.958	12958.462
646.087	12924.731
646.215	12894.712
646.343	12928.596
646.471	13072.115
646.599	12891.615
646.727	12845.558
646.855	12875.269
646.983	12878.077
647.112	12948.356
647.240	12839.635
647.368	12894.740
647.496	12835.394
647.624	12842.471
647.752	12778.933
647.880	12763.346
648.008	12793.510
648.137	12820.394
648.265	12734.894
648.393	12821.769
648.521	12695.817
648.649	12810.058
648.777	12735.221
648.905	12674.154
649.033	12721.875
649.162	12584.346
649.290	12521.529
649.418	12536.923
649.546	12656.096
649.674	12500.346
649.802	12467.471
649.930	12410.231
650.058	12378.635
650.187	12439.346
650.315	12354.933
650.443	12386.163
650.571	12315.500
650.699	12298.885
650.827	12236.606
650.955	12213.471
651.083	12320.058
651.212	12168.442
651.340	12187.404
651.468	12097.635
651.596	12108.394
651.724	12092.942
651.852	12061.462
651.980	12041.173
652.108	12012.192
652.237	12018.952
652.365	11927.750
652.493	11950.913
652.621	11890.635
652.749	11905.106
652.877	11895.548
653.005	11918.788
653.133	11796.202
653.262	11757.221
653.390	11746.048
653.518	11904.029
653.646	11716.000
653.774	11654.058
653.902	11727.769
654.030	11727.010
654.158	11591.981
654.287	11639.404
654.415	11610.163
654.543	11603.529
654.671	11554.625
654.799	11543.327
654.927	11461.587
655.055	11444.413
655.183	11458.490
655.312	11444.587
655.440	11395.750
655.568	11397.202
655.696	11415.817
655.824	11358.212
655.952	11370.529
656.080	11284.231
656.208	11303.173
656.337	11290.250
656.465	11449.712
656.593	11257.365
656.721	11286.817
656.849	11326.365
656.977	11101.490
657.105	11153.750
657.233	11156.673
657.362	11178.923
657.490	11131.163
657.618	11115.529
657.746	11072.923
657.874	10988.250
658.002	11002.952
658.130	10917.558
658.258	10935.346
658.387	10852.702
658.515	10856.029
658.643	10828.587
658.771	10880.394
658.899	10801.913
659.027	10787.337
659.155	10763.385
659.283	10704.885
659.412	10726.769
659.540	10679.442
659.668	10736.817
659.796	10773.260
659.924	10717.231
660.052	10785.327
660.180	10658.596
660.308	10720.135
660.437	10690.673
660.565	10639.433
660.693	10536.481
660.821	10707.087
660.949	10510.808
661.077	10558.327
661.205	10678.769
661.333	10462.760
661.462	10435.663
661.590	10563.548
661.718	10451.971
661.846	10468.029
661.974	10384.894
662.102	10414.058
662.230	10393.519
662.358	10254.029
662.487	10312.577
662.615	10301.971
662.743	10305.712
662.871	10285.154
662.999	10200.029
663.127	10178.365
663.255	10184.952
663.383	10308.644
663.512	10116.135
663.640	10151.856
663.768	10156.423
663.896	10080.933
664.024	10094.000
664.152	10039.894
664.280	10086.894
664.408	9972.135
664.537	10002.144
664.665	10010.298
664.793	10006.163
664.921	9955.423
665.049	9996.933
665.177	9884.971
665.305	9906.548
665.433	9901.538
665.562	10030.462
665.690	9850.221
665.818	10007.337
665.946	9763.413
666.074	9791.288
666.202	9770.510
666.330	9710.923
666.458	10130.288
666.587	9706.423
666.715	9702.510
666.843	9655.740
666.971	9667.606
667.099	9650.904
667.227	9700.635
667.355	9705.173
667.483	9577.971
667.612	9632.067
667.740	9590.779
667.868	9546.144
667.996	9494.202
668.124	9528.077
668.252	9603.279
668.380	9429.625
668.508	9460.442
668.637	9388.875
668.765	9439.519
668.893	9390.260
669.021	9352.471
669.149	9384.125
669.277	9280.731
669.405	9394.288
669.533	9386.885
669.662	9268.904
669.790	9292.317
669.918	9285.490
670.046	9385.087
670.174	9172.596
670.302	9154.683
670.430	9103.442
670.558	9158.048
670.687	9277.615
670.815	9076.856
670.943	9090.356
671.071	8996.481
671.199	8979.240
671.327	8963.788
671.455	8988.010
671.583	8949.875
671.712	8918.115
671.840	8957.231
671.968	9054.740
672.096	8984.240
672.224	8796.260
672.352	8786.788
672.480	8711.827
672.608	8797.394
672.737	8703.673
672.865	8649.625
672.993	8659.202
673.121	8635.038
673.249	8602.163
673.377	8575.048
673.505	8536.125
673.633	8580.808
673.762	8513.317
673.890	8499.683
674.018	8487.240
674.146	8427.731
674.274	8432.000
674.402	8458.375
674.530	8370.750
674.658	8358.577
674.787	8310.942
674.915	8448.260
675.043	8307.673
675.171	8257.471
675.299	8211.038
675.427	8185.721
675.555	8173.635
675.683	8189.731
675.812	8129.433
675.940	8129.394
676.068	8059.096
676.196	8096.298
676.324	8023.019
676.452	7961.721
676.580	7925.337
676.708	7894.923
676.837	7916.087
676.965	7978.308
677.093	8009.942
677.221	7889.490
677.349	7767.952
677.477	7853.548
677.605	7745.510
677.733	7755.856
677.862	7726.663
677.990	7745.885
678.118	7753.817
678.246	7687.327
678.374	7718.760
678.502	7622.596
678.630	7557.808
678.758	7601.837
678.887	7681.144
679.015	7497.587
679.143	7460.269
679.271	7421.192
679.399	7443.144
679.527	7453.452
679.655	7470.885
679.783	7354.125
679.912	7321.519
680.040	7517.779
680.168	7326.192
680.296	7321.702
680.424	7279.212
680.552	7226.894
680.680	7256.769
680.808	7170.365
680.937	7170.490
681.065	7203.846
681.193	7130.163
681.321	7085.760
681.449	7132.221
681.577	7091.558
681.705	7053.154
681.833	7061.048
681.962	7037.288
682.090	6991.452
682.218	6980.356
682.346	6975.615
682.474	6954.519
682.602	6916.317
682.730	6959.654
682.858	6879.269
682.987	6885.135
683.115	6890.673
683.243	6861.231
683.371	6860.923
683.499	6771.519
683.627	6822.731
683.755	6768.096
683.883	6733.087
684.012	6743.596
684.140	6698.135
684.268	6711.856
684.396	6772.990
684.524	6679.240
684.652	6694.673
684.780	6664.288
684.908	6669.288
685.037	6670.933
685.165	6625.279
685.293	6670.538
685.421	6611.269
685.549	6613.048
685.677	6536.500
685.805	6582.663
685.933	6520.115
686.062	6514.606
686.190	6501.269
686.318	6476.875
686.446	6460.548
686.574	6427.038
686.702	6486.827
686.830	6391.240
686.958	6451.760
687.087	6344.452
687.215	6374.356
687.343	6358.798
687.471	6463.442
687.599	6266.529
687.727	6268.490
687.855	6248.000
687.983	6219.731
688.112	6272.365
688.240	6215.433
688.368	6228.269
688.496	6175.481
688.624	6149.933
688.752	6308.615
688.880	6124.779
689.008	6125.500
689.137	6098.904
689.265	6032.115
689.393	6071.567
689.521	6049.962
689.649	6117.654
689.777	6044.577
689.905	6092.865
690.033	5959.942
690.162	5929.760
690.290	5961.038
690.418	5914.096
690.546	5972.346
690.674	5936.346
690.802	5953.115
690.930	5878.990
691.058	5878.096
691.187	5815.327
691.315	5804.212
691.443	5799.038
691.571	5785.433
691.699	5758.596
691.827	5728.250
691.955	5714.385
692.083	5700.067
692.212	5703.115
692.340	5679.260
692.468	5711.462
692.596	5663.346
692.724	5617.625
692.852	5654.212
692.980	5631.740
693.108	5673.750
693.237	5568.346
693.365	5526.606
693.493	5512.298
693.621	5517.875
693.749	5458.048
693.877	5544.173
694.005	5403.019
694.133	5400.885
694.262	5469.971
694.390	5353.298
694.518	5371.740
694.646	5366.356
694.774	5295.279
694.902	5308.769
695.030	5298.529
695.158	5284.260
695.287	5255.260
695.415	5235.587
695.543	5239.413
695.671	5170.471
695.799	5287.894
695.927	5154.231
696.055	5174.904
696.183	5109.740
696.312	5283.750
696.440	5098.452
696.568	5133.394
696.696	4997.106
696.824	5013.365
696.952	4997.875
697.080	4989.279
697.208	4918.163
697.337	4940.856
697.465	4923.087
697.593	4874.692
697.721	4990.683
697.849	4844.452
697.977	4891.288
698.105	4919.625
698.233	4857.038
698.362	4783.779
698.490	4890.096
698.618	4730.269
698.746	4722.596
698.874	4796.221
699.002	4738.952
699.130	4728.644
699.258	4685.837
699.387	4608.798
699.515	4659.731
699.643	4682.971
699.771	4751.058
699.899	4591.471
700.027	4535.712
700.155	4608.731
700.283	4504.663
700.412	4527.933
700.540	4557.856
700.668	4567.163
700.796	4469.385
700.924	4498.548
701.052	4487.202
701.180	4481.587
701.308	4402.250
701.437	4361.154
701.565	4376.500
701.693	4411.587
701.821	4527.394
701.949	4301.231
702.077	4311.981
702.205	4387.077
702.333	4290.510
702.462	4240.538
702.590	4317.558
702.718	4213.000
702.846	4382.163
702.974	4177.115
703.102	4180.106
703.230	4198.010
703.358	4159.894
703.487	4138.827
703.615	4111.010
703.743	4103.904
703.871	4064.346
703.999	4058.048
704.127	4038.750
704.255	4005.606
704.383	4041.856
704.512	4074.250
704.640	4027.875
704.768	4070.663
704.896	3939.433
705.024	3903.885
705.152	3909.712
705.280	3951.760
705.408	3873.913
705.537	3858.135
705.665	3854.606
705.793	3840.904
705.921	3833.615
706.049	3787.692
706.177	3821.952
706.305	3741.683
706.433	3799.817
706.562	3766.779
706.690	3741.644
706.818	3736.692
706.946	3695.904
707.074	3648.856
707.202	3627.952
707.330	3639.673
707.458	3625.337
707.587	3579.538
707.715	3633.500
707.843	3612.808
707.971	3617.087
708.099	3541.769
708.227	3546.260
708.355	3532.019
708.483	3506.471
708.612	3508.817
708.740	3473.442
708.868	3462.990
708.996	3518.913
709.124	3500.442
709.252	3454.606
709.380	3451.933
709.508	3368.442
709.637	3436.490
709.765	3378.452
709.893	3423.865
710.021	3347.712
710.149	3432.471
710.277	3328.587
710.405	3323.019
710.533	3299.894
710.662	3308.837
710.790	3382.154
710.918	3247.721
711.046	3304.250
711.174	3249.490
711.302	3274.837
711.430	3232.375
711.558	3252.337
711.687	3225.067
711.815	3165.269
711.943	3146.173
712.071	3166.788
712.199	3169.577
712.327	3209.087
712.455	3110.558
712.583	3261.490
712.712	3126.942
712.840	3152.115
712.968	3090.375
713.096	3078.635
713.224	3046.298
713.352	3058.779
713.480	3000.587
713.608	3003.404
713.737	2967.452
713.865	3028.731
713.993	2999.077
714.121	2989.942
714.249	2943.183
714.377	2925.346
714.505	2936.115
714.633	2938.721
714.762	2907.154
714.890	2913.654
715.018	2887.433
715.146	2912.644
715.274	2850.933
715.402	2857.798
715.530	2844.375
715.658	2860.163
715.787	2831.413
715.915	2921.894
716.043	2822.548
716.171	2933.413
716.299	2757.702
716.427	2849.596
716.555	2746.779
716.683	2744.481
716.812	2725.519
716.940	2740.760
717.068	2682.567
717.196	2857.279
717.324	2710.702
717.452	2686.529
717.580	2734.077
717.708	2656.192
717.837	2658.413
717.965	2698.769
718.093	2635.404
718.221	2683.231
718.349	2703.962
718.477	2594.596
718.605	2699.788
718.733	2604.740
718.862	2638.154
718.990	2571.981
719.118	2633.087
719.246	2558.798
719.374	2540.567
719.502	2594.481
719.630	2676.212
719.758	2530.163
719.887	2498.269
720.015	2525.635
720.143	2571.750
720.271	2477.192
720.399	2519.596
720.527	2480.827
720.655	2555.269
720.783	2455.462
720.912	2455.115
721.040	2456.308
721.168	2480.144
721.296	2425.846
721.424	2443.067
721.552	2429.221
721.680	2453.298
721.808	2434.740
721.937	2416.750
722.065	2427.952
722.193	2413.048
722.321	2414.404
722.449	2405.183
722.577	2369.317
722.705	2372.740
