70_140_wo_Pol_at_750.00nm_cut_at_1179.00Y_01.dat
03.07.2023
11:15:58
cut middle at Y: 1179.00
top cursor: 1231 down cursor: 1127 mean of: 104 lines , 2560 datapoints
wavelength(nm)	intensity[arb. units]
585.996	28565.817
586.124	28129.942
586.252	28164.567
586.380	28150.577
586.508	28261.500
586.637	28424.240
586.765	28392.356
586.893	28539.519
587.021	28554.635
587.149	28663.558
587.277	28728.712
587.405	28689.298
587.533	28865.067
587.662	28910.490
587.790	28909.019
587.918	28869.683
588.046	28873.702
588.174	28954.442
588.302	29012.846
588.430	29081.538
588.558	29013.221
588.687	29068.202
588.815	29103.423
588.943	28992.933
589.071	29111.740
589.199	29133.385
589.327	29149.154
589.455	29121.750
589.583	29088.462
589.712	29099.471
589.840	29051.615
589.968	29087.413
590.096	29177.875
590.224	29208.519
590.352	29293.500
590.480	29205.163
590.608	29158.337
590.737	29197.865
590.865	29220.471
590.993	29147.721
591.121	29169.490
591.249	29177.019
591.377	29244.394
591.505	29321.327
591.633	29230.644
591.762	29290.548
591.890	29311.462
592.018	29349.058
592.146	29410.183
592.274	29356.269
592.402	29357.260
592.530	29537.817
592.658	29490.663
592.787	29512.808
592.915	29613.115
593.043	29528.635
593.171	29675.029
593.299	29667.115
593.427	29644.606
593.555	29771.202
593.683	29788.250
593.812	29822.567
593.940	29918.433
594.068	29969.010
594.196	29979.317
594.324	30090.933
594.452	30318.413
594.580	30266.913
594.708	30366.404
594.837	30346.875
594.965	30512.548
595.093	30584.913
595.221	30710.962
595.349	30748.269
595.477	30766.942
595.605	30867.202
595.733	30889.500
595.862	30995.240
595.990	31021.769
596.118	31059.952
596.246	31191.846
596.374	31187.625
596.502	31301.385
596.630	31323.442
596.758	31317.567
596.887	31427.096
597.015	31459.548
597.143	31505.827
597.271	31457.798
597.399	31665.712
597.527	31571.750
597.655	31563.240
597.783	31667.596
597.912	31594.240
598.040	31692.596
598.168	31688.250
598.296	31603.231
598.424	31777.846
598.552	31619.212
598.680	31640.413
598.808	31765.356
598.937	31668.481
599.065	31687.413
599.193	31700.856
599.321	31702.971
599.449	31647.192
599.577	31610.183
599.705	31625.442
599.833	31550.808
599.962	31569.769
600.090	31616.596
600.218	31584.856
600.346	31658.096
600.474	31621.337
600.602	31543.231
600.730	31610.173
600.858	31674.471
600.987	31778.788
601.115	31673.606
601.243	31750.356
601.371	31787.837
601.499	31787.548
601.627	31950.760
601.755	31907.538
601.883	31931.000
602.012	31877.163
602.140	31995.442
602.268	32005.529
602.396	32221.173
602.524	32224.029
602.652	32405.779
602.780	32369.106
602.908	32479.596
603.037	32663.721
603.165	32688.433
603.293	32778.385
603.421	32859.529
603.549	32920.538
603.677	32984.240
603.805	33154.452
603.933	33254.221
604.062	33421.038
604.190	33527.721
604.318	33577.654
604.446	33670.769
604.574	33801.538
604.702	33803.981
604.830	33984.760
604.958	33989.731
605.087	34150.923
605.215	34404.510
605.343	34463.654
605.471	34512.673
605.599	34559.202
605.727	34794.433
605.855	34845.067
605.983	34925.250
606.112	35016.721
606.240	35047.615
606.368	35089.163
606.496	35168.904
606.624	35280.452
606.752	35252.683
606.880	35387.827
607.008	35404.058
607.137	35432.365
607.265	35532.990
607.393	35567.010
607.521	35690.702
607.649	35651.106
607.777	35614.731
607.905	35632.750
608.033	35650.433
608.162	35672.500
608.290	35636.971
608.418	35791.933
608.546	35739.394
608.674	35815.288
608.802	35730.385
608.930	35716.875
609.058	35715.644
609.187	35706.952
609.315	35665.096
609.443	35645.885
609.571	35829.413
609.699	35643.760
609.827	35661.154
609.955	35697.663
610.083	35591.298
610.212	35594.163
610.340	35578.577
610.468	35624.144
610.596	35600.135
610.724	35560.712
610.852	35619.337
610.980	35582.913
611.108	35568.875
611.237	35593.587
611.365	35633.279
611.493	35541.173
611.621	35597.038
611.749	35662.115
611.877	35689.885
612.005	35741.654
612.133	35783.471
612.262	35804.375
612.390	35880.250
612.518	35940.231
612.646	35899.904
612.774	36100.144
612.902	36092.317
613.030	36165.442
613.158	36118.865
613.287	36224.183
613.415	36230.885
613.543	36295.010
613.671	36357.981
613.799	36416.981
613.927	36533.337
614.055	36613.856
614.183	36592.663
614.312	36719.827
614.440	36902.567
614.568	36946.952
614.696	37005.240
614.824	37093.202
614.952	37131.856
615.080	37239.567
615.208	37360.096
615.337	37484.385
615.465	37440.981
615.593	37684.269
615.721	37635.663
615.849	37763.240
615.977	37816.567
616.105	37868.548
616.233	37982.827
616.362	38149.490
616.490	38130.837
616.618	38273.654
616.746	38452.452
616.874	38446.712
617.002	38456.221
617.130	38566.538
617.258	38608.231
617.387	38678.635
617.515	38698.894
617.643	38748.308
617.771	38849.260
617.899	38832.404
618.027	38954.510
618.155	38986.106
618.283	39026.856
618.412	39064.894
618.540	39180.837
618.668	39168.125
618.796	39184.279
618.924	39194.740
619.052	39309.423
619.180	39213.981
619.308	39145.587
619.437	39260.913
619.565	39290.519
619.693	39282.163
619.821	39305.827
619.949	39334.452
620.077	39389.760
620.205	39379.490
620.333	39407.260
620.462	39358.356
620.590	39446.529
620.718	39407.548
620.846	39491.317
620.974	39498.635
621.102	39531.010
621.230	39496.202
621.358	39540.413
621.487	39457.865
621.615	39513.163
621.743	39383.346
621.871	39514.837
621.999	39418.952
622.127	39384.692
622.255	39431.106
622.383	39321.510
622.512	39432.067
622.640	39378.923
622.768	39419.702
622.896	39476.317
623.024	39410.942
623.152	39488.635
623.280	39522.308
623.408	39471.837
623.537	39501.740
623.665	39440.673
623.793	39541.433
623.921	39452.808
624.049	39491.490
624.177	39492.971
624.305	39485.471
624.433	39471.375
624.562	39498.865
624.690	39539.452
624.818	39401.904
624.946	39301.106
625.074	39412.740
625.202	39393.385
625.330	39374.865
625.458	39439.019
625.587	39450.413
625.715	39503.654
625.843	39377.404
625.971	39553.144
626.099	39492.798
626.227	39528.510
626.355	39487.337
626.483	39539.510
626.612	39525.462
626.740	39647.260
626.868	39560.029
626.996	39651.260
627.124	39598.106
627.252	39614.490
627.380	39664.567
627.508	39635.442
627.637	39671.952
627.765	39834.433
627.893	39793.750
628.021	39844.577
628.149	39825.260
628.277	39836.423
628.405	39887.750
628.533	39858.548
628.662	39932.673
628.790	40096.567
628.918	40032.029
629.046	40185.173
629.174	40154.923
629.302	40184.462
629.430	40254.712
629.558	40262.875
629.687	40287.144
629.815	40400.000
629.943	40533.731
630.071	40523.144
630.199	40610.413
630.327	40667.346
630.455	40641.096
630.583	40703.327
630.712	40672.596
630.840	40882.240
630.968	40863.731
631.096	40919.154
631.224	40957.971
631.352	41144.625
631.480	41075.481
631.608	41239.260
631.737	41139.808
631.865	41259.404
631.993	41237.269
632.121	41422.048
632.249	41360.712
632.377	41325.154
632.505	41400.077
632.633	41517.010
632.762	41420.683
632.890	41456.337
633.018	41367.808
633.146	41397.625
633.274	41364.817
633.402	41432.385
633.530	41479.096
633.658	41440.231
633.787	41386.942
633.915	41369.750
634.043	41416.375
634.171	41455.365
634.299	41402.510
634.427	41386.125
634.555	41555.923
634.683	41357.067
634.812	41336.442
634.940	41299.798
635.068	41261.856
635.196	41190.269
635.324	41188.875
635.452	41147.048
635.580	41213.240
635.708	41052.721
635.837	41067.394
635.965	40935.125
636.093	40876.375
636.221	40816.519
636.349	40726.471
636.477	40722.779
636.605	40718.846
636.733	40621.663
636.862	40592.577
636.990	40555.279
637.118	40371.942
637.246	40299.788
637.374	40401.317
637.502	40172.654
637.630	40092.731
637.758	40035.183
637.887	39951.846
638.015	40074.673
638.143	39903.788
638.271	39795.663
638.399	39780.250
638.527	39655.663
638.655	39629.096
638.783	39567.904
638.912	39561.471
639.040	39378.760
639.168	39318.317
639.296	39277.606
639.424	39261.452
639.552	39218.644
639.680	39225.058
639.808	39139.365
639.937	39084.923
640.065	39105.673
640.193	39091.673
640.321	39144.365
640.449	39068.096
640.577	39037.154
640.705	39007.019
640.833	38963.481
640.962	39004.423
641.090	38933.365
641.218	38908.721
641.346	38952.894
641.474	38902.317
641.602	38886.423
641.730	38889.442
641.858	38823.115
641.987	38875.933
642.115	38991.808
642.243	38797.712
642.371	38954.163
642.499	38754.567
642.627	38873.981
642.755	38876.404
642.883	38846.798
643.012	38807.269
643.140	38852.067
643.268	38870.817
643.396	38775.298
643.524	38794.433
643.652	38850.702
643.780	38849.894
643.908	38785.808
644.037	38870.827
644.165	38841.240
644.293	38939.558
644.421	38717.779
644.549	38813.490
644.677	38803.115
644.805	38729.260
644.933	38666.077
645.062	38771.212
645.190	38872.404
645.318	38785.087
645.446	38676.038
645.574	38785.212
645.702	38618.837
645.830	38707.250
645.958	38565.683
646.087	38640.471
646.215	38520.010
646.343	38481.298
646.471	38620.712
646.599	38458.471
646.727	38478.558
646.855	38392.250
646.983	38365.327
647.112	38458.202
647.240	38343.115
647.368	38317.885
647.496	38233.183
647.624	38180.288
647.752	38187.067
647.880	38121.846
648.008	38046.067
648.137	38070.433
648.265	38030.837
648.393	38069.394
648.521	37911.250
648.649	37935.394
648.777	37779.058
648.905	37738.154
649.033	37726.856
649.162	37538.481
649.290	37442.625
649.418	37396.846
649.546	37548.375
649.674	37323.029
649.802	37277.212
649.930	37197.404
650.058	37059.846
650.187	37076.856
650.315	36915.490
650.443	36922.346
650.571	36795.933
650.699	36741.462
650.827	36620.298
650.955	36476.971
651.083	36472.856
651.212	36394.510
651.340	36341.500
651.468	36306.029
651.596	36250.942
651.724	36193.827
651.852	36014.202
651.980	36027.865
652.108	35861.875
652.237	35880.144
652.365	35706.827
652.493	35687.558
652.621	35572.740
652.749	35532.644
652.877	35481.048
653.005	35423.288
653.133	35363.471
653.262	35225.740
653.390	35116.731
653.518	35233.798
653.646	34954.365
653.774	34879.202
653.902	34968.692
654.030	34811.462
654.158	34761.154
654.287	34716.183
654.415	34610.356
654.543	34652.019
654.671	34484.913
654.799	34452.317
654.927	34345.058
655.055	34269.029
655.183	34294.462
655.312	34141.577
655.440	34094.019
655.568	34013.740
655.696	34029.913
655.824	33922.702
655.952	33849.750
656.080	33699.375
656.208	33734.788
656.337	33653.750
656.465	33740.760
656.593	33495.490
656.721	33519.481
656.849	33484.808
656.977	33264.019
657.105	33219.779
657.233	33181.567
657.362	33218.596
657.490	33049.404
657.618	32955.413
657.746	32924.125
657.874	32634.635
658.002	32599.413
658.130	32390.442
658.258	32375.202
658.387	32306.798
658.515	32239.721
658.643	32193.279
658.771	32176.788
658.899	32100.615
659.027	31934.683
659.155	31897.452
659.283	31809.471
659.412	31732.885
659.540	31709.990
659.668	31724.760
659.796	31662.163
659.924	31617.327
660.052	31654.019
660.180	31617.596
660.308	31637.654
660.437	31531.462
660.565	31346.808
660.693	31164.433
660.821	31293.394
660.949	31045.538
661.077	30989.096
661.205	31134.683
661.333	30905.029
661.462	30813.519
661.590	30787.481
661.718	30629.337
661.846	30612.721
661.974	30459.519
662.102	30507.269
662.230	30314.808
662.358	30230.192
662.487	30240.760
662.615	30196.788
662.743	30112.010
662.871	30058.038
662.999	29895.894
663.127	29883.548
663.255	29764.856
663.383	29827.885
663.512	29642.260
663.640	29616.913
663.768	29583.394
663.896	29484.058
664.024	29438.635
664.152	29378.654
664.280	29389.740
664.408	29252.865
664.537	29187.135
664.665	29138.952
664.793	29133.856
664.921	29021.596
665.049	29089.567
665.177	28906.692
665.305	28884.288
665.433	28887.481
665.562	28878.894
665.690	28670.519
665.818	28836.538
665.946	28578.606
666.074	28503.038
666.202	28445.471
666.330	28454.683
666.458	28639.433
666.587	28266.106
666.715	28226.750
666.843	28137.298
666.971	28121.952
667.099	28134.212
667.227	28121.846
667.355	28066.577
667.483	27960.865
667.612	27963.962
667.740	27828.779
667.868	27805.279
667.996	27753.154
668.124	27697.481
668.252	27710.577
668.380	27517.654
668.508	27484.740
668.637	27410.731
668.765	27374.913
668.893	27294.010
669.021	27201.221
669.149	27199.952
669.277	27021.404
669.405	27125.337
669.533	27039.077
669.662	26908.885
669.790	26816.923
669.918	26793.548
670.046	26825.154
670.174	26624.423
670.302	26509.163
670.430	26453.779
670.558	26382.019
670.687	26506.740
670.815	26254.163
670.943	26226.038
671.071	26074.817
671.199	26013.856
671.327	26028.673
671.455	25995.587
671.583	25851.154
671.712	25805.298
671.840	25746.981
671.968	25818.087
672.096	25701.817
672.224	25528.183
672.352	25420.192
672.480	25282.163
672.608	25247.337
672.737	25173.106
672.865	25099.510
672.993	25001.731
673.121	24901.510
673.249	24845.327
673.377	24753.308
673.505	24682.442
673.633	24654.106
673.762	24560.202
673.890	24503.923
674.018	24515.798
674.146	24332.558
674.274	24284.298
674.402	24207.942
674.530	24120.577
674.658	23988.933
674.787	23896.875
674.915	23943.221
675.043	23823.365
675.171	23665.769
675.299	23583.173
675.427	23483.558
675.555	23441.231
675.683	23385.240
675.812	23275.663
675.940	23153.769
676.068	23089.317
676.196	23097.760
676.324	22924.240
676.452	22811.567
676.580	22797.346
676.708	22738.798
676.837	22640.346
676.965	22605.346
677.093	22610.760
677.221	22441.500
677.349	22248.288
677.477	22263.721
677.605	22086.981
677.733	22093.462
677.862	22001.865
677.990	21939.644
678.118	21886.173
678.246	21785.394
678.374	21778.875
678.502	21593.548
678.630	21515.048
678.758	21514.346
678.887	21545.779
679.015	21273.894
679.143	21226.298
679.271	21184.808
679.399	21122.462
679.527	21075.894
679.655	21073.538
679.783	20894.538
679.912	20839.327
680.040	20972.644
680.168	20724.385
680.296	20684.923
680.424	20640.692
680.552	20518.538
680.680	20437.827
680.808	20363.798
680.937	20339.135
681.065	20282.779
681.193	20199.346
681.321	20128.740
681.449	20128.442
681.577	20035.433
681.705	19956.288
681.833	19917.856
681.962	19823.231
682.090	19774.183
682.218	19694.212
682.346	19658.317
682.474	19596.288
682.602	19527.433
682.730	19532.827
682.858	19443.288
682.987	19386.452
683.115	19374.904
683.243	19271.096
683.371	19231.183
683.499	19121.385
683.627	19118.721
683.755	19054.077
683.883	18992.529
684.012	18947.606
684.140	18901.019
684.268	18892.106
684.396	18920.654
684.524	18791.442
684.652	18760.308
684.780	18699.654
684.908	18638.769
685.037	18604.163
685.165	18581.385
685.293	18567.462
685.421	18485.519
685.549	18409.635
685.677	18328.596
685.805	18312.808
685.933	18214.346
686.062	18150.279
686.190	18081.231
686.318	18052.077
686.446	17970.029
686.574	17916.365
686.702	17938.558
686.830	17788.135
686.958	17847.308
687.087	17739.692
687.215	17712.183
687.343	17667.048
687.471	17767.154
687.599	17497.760
687.727	17477.740
687.855	17368.029
687.983	17345.356
688.112	17358.875
688.240	17250.529
688.368	17262.048
688.496	17131.038
688.624	17066.971
688.752	17178.760
688.880	17024.692
689.008	16971.606
689.137	16904.221
689.265	16801.038
689.393	16765.529
689.521	16734.385
689.649	16787.731
689.777	16650.058
689.905	16687.231
690.033	16499.317
690.162	16455.558
690.290	16486.173
690.418	16340.096
690.546	16355.827
690.674	16304.481
690.802	16267.760
690.930	16201.125
691.058	16133.760
691.187	16014.529
691.315	16027.500
691.443	15955.077
691.571	15935.048
691.699	15866.471
691.827	15769.346
691.955	15742.212
692.083	15671.337
692.212	15617.962
692.340	15591.077
692.468	15588.231
692.596	15532.308
692.724	15418.817
692.852	15416.798
692.980	15406.990
693.108	15389.308
693.237	15235.096
693.365	15183.788
693.493	15109.279
693.621	15079.327
693.749	15009.490
693.877	14979.904
694.005	14847.558
694.133	14798.702
694.262	14816.221
694.390	14682.308
694.518	14660.212
694.646	14645.269
694.774	14521.462
694.902	14455.933
695.030	14424.125
695.158	14382.788
695.287	14304.000
695.415	14266.596
695.543	14207.558
695.671	14101.433
695.799	14229.231
695.927	14063.394
696.055	14033.942
696.183	13932.067
696.312	14100.288
696.440	13877.731
696.568	13858.750
696.696	13695.048
696.824	13608.933
696.952	13578.587
697.080	13539.750
697.208	13469.856
697.337	13412.587
697.465	13375.471
697.593	13281.250
697.721	13364.788
697.849	13180.298
697.977	13181.346
698.105	13218.356
698.233	13107.048
698.362	12989.587
698.490	13077.048
698.618	12870.769
698.746	12860.481
698.874	12906.212
699.002	12798.327
699.130	12760.462
699.258	12692.885
699.387	12576.721
699.515	12610.288
699.643	12544.077
699.771	12560.221
699.899	12414.115
700.027	12354.885
700.155	12404.827
700.283	12232.365
700.412	12246.702
700.540	12225.587
700.668	12268.404
700.796	12100.125
700.924	12062.529
701.052	12033.067
701.180	12002.981
701.308	11895.077
701.437	11825.952
701.565	11837.837
701.693	11814.404
701.821	11934.125
701.949	11655.106
702.077	11676.471
702.205	11664.231
702.333	11550.740
702.462	11489.740
702.590	11509.192
702.718	11366.981
702.846	11506.769
702.974	11269.212
703.102	11245.087
703.230	11234.279
703.358	11150.317
703.487	11109.404
703.615	11055.625
703.743	11019.298
703.871	10987.837
703.999	10922.615
704.127	10861.250
704.255	10813.048
704.383	10822.837
704.512	10801.048
704.640	10752.587
704.768	10747.202
704.896	10597.577
705.024	10518.577
705.152	10493.500
705.280	10513.087
705.408	10390.442
705.537	10349.692
705.665	10304.990
705.793	10255.990
705.921	10234.817
706.049	10137.365
706.177	10151.019
706.305	10093.990
706.433	10089.519
706.562	10034.856
706.690	9981.471
706.818	9922.067
706.946	9846.202
707.074	9776.077
707.202	9717.942
707.330	9692.308
707.458	9664.760
707.587	9625.260
707.715	9604.471
707.843	9596.442
707.971	9579.779
708.099	9421.365
708.227	9403.865
708.355	9389.038
708.483	9330.077
708.612	9316.327
708.740	9255.385
708.868	9203.587
708.996	9225.288
709.124	9190.942
709.252	9154.404
709.380	9096.077
709.508	9018.481
709.637	9026.894
709.765	8981.837
709.893	8984.029
710.021	8865.606
710.149	8988.721
710.277	8812.606
710.405	8784.212
710.533	8744.923
710.662	8709.250
710.790	8795.923
710.918	8643.298
711.046	8677.654
711.174	8575.221
711.302	8613.615
711.430	8522.308
711.558	8521.577
711.687	8471.250
711.815	8408.808
711.943	8356.933
712.071	8342.000
712.199	8324.519
712.327	8381.673
712.455	8224.933
712.583	8422.817
712.712	8228.346
712.840	8238.846
712.968	8119.096
713.096	8076.163
713.224	8039.096
713.352	8032.779
713.480	7942.577
713.608	7906.067
713.737	7895.731
713.865	7950.346
713.993	7865.240
714.121	7845.173
714.249	7777.327
714.377	7747.990
714.505	7697.750
714.633	7719.154
714.762	7661.529
714.890	7624.942
715.018	7610.865
715.146	7621.644
715.274	7525.019
715.402	7505.606
715.530	7482.375
715.658	7505.760
715.787	7459.750
715.915	7513.356
716.043	7382.298
716.171	7480.096
716.299	7289.692
716.427	7374.769
716.555	7252.663
716.683	7226.654
716.812	7200.096
716.940	7176.712
717.068	7128.183
717.196	7304.894
717.324	7092.183
717.452	7093.337
717.580	7122.250
717.708	6975.529
717.837	6978.788
717.965	6983.135
718.093	6933.240
718.221	6894.654
718.349	6955.317
718.477	6838.490
718.605	6934.885
718.733	6823.279
718.862	6853.615
718.990	6717.442
719.118	6781.510
719.246	6669.933
719.374	6630.067
719.502	6677.365
719.630	6738.596
719.758	6567.327
719.887	6558.135
720.015	6570.913
