70_140_90_Pol_at_750.00nm_cut_at_1179.00Y_01.dat
03.07.2023
11:17:01
cut middle at Y: 1179.00
top cursor: 1231 down cursor: 1127 mean of: 104 lines , 2560 datapoints
wavelength(nm)	intensity[arb. units]
585.996	10556.587
586.124	10353.308
586.252	10371.279
586.380	10402.327
586.508	10419.337
586.637	10507.663
586.765	10468.087
586.893	10485.154
587.021	10559.635
587.149	10583.519
587.277	10597.019
587.405	10600.096
587.533	10629.654
587.662	10679.942
587.790	10622.327
587.918	10631.769
588.046	10659.990
588.174	10655.731
588.302	10671.663
588.430	10700.606
588.558	10687.760
588.687	10706.404
588.815	10731.740
588.943	10721.529
589.071	10689.971
589.199	10716.442
589.327	10719.087
589.455	10774.913
589.583	10733.490
589.712	10722.154
589.840	10715.885
589.968	10706.644
590.096	10737.692
590.224	10730.433
590.352	10796.558
590.480	10730.500
590.608	10710.865
590.737	10742.019
590.865	10838.423
590.993	10701.288
591.121	10743.240
591.249	10726.154
591.377	10757.779
591.505	10840.058
591.633	10754.500
591.762	10761.846
591.890	10781.471
592.018	10879.500
592.146	10798.452
592.274	10760.423
592.402	10773.404
592.530	10981.587
592.658	10873.712
592.787	10870.587
592.915	10923.663
593.043	10815.346
593.171	10896.673
593.299	10882.163
593.427	10898.048
593.555	10908.000
593.683	10916.058
593.812	10948.885
593.940	10973.481
594.068	11002.788
594.196	10977.769
594.324	11048.183
594.452	11245.885
594.580	11141.971
594.708	11152.913
594.837	11132.231
594.965	11243.769
595.093	11195.962
595.221	11279.240
595.349	11266.913
595.477	11301.212
595.605	11286.894
595.733	11337.029
595.862	11355.865
595.990	11371.154
596.118	11418.394
596.246	11491.510
596.374	11412.904
596.502	11423.038
596.630	11463.894
596.758	11474.192
596.887	11510.327
597.015	11505.760
597.143	11511.875
597.271	11512.337
597.399	11585.615
597.527	11566.404
597.655	11543.346
597.783	11566.606
597.912	11548.394
598.040	11601.865
598.168	11563.356
598.296	11519.365
598.424	11713.019
598.552	11557.250
598.680	11574.442
598.808	11630.817
598.937	11589.356
599.065	11589.913
599.193	11593.385
599.321	11642.596
599.449	11571.019
599.577	11572.212
599.705	11596.135
599.833	11531.452
599.962	11561.952
600.090	11580.048
600.218	11590.760
600.346	11587.644
600.474	11565.106
600.602	11508.990
600.730	11558.038
600.858	11576.654
600.987	11643.250
601.115	11550.375
601.243	11646.115
601.371	11707.202
601.499	11693.538
601.627	11668.240
601.755	11652.933
601.883	11723.462
602.012	11659.096
602.140	11751.375
602.268	11705.894
602.396	11859.337
602.524	11780.904
602.652	11841.750
602.780	11844.779
602.908	11852.019
603.037	11935.923
603.165	11936.740
603.293	11965.798
603.421	12013.433
603.549	12009.250
603.677	12054.404
603.805	12087.625
603.933	12091.577
604.062	12189.077
604.190	12220.135
604.318	12237.010
604.446	12190.317
604.574	12301.423
604.702	12370.644
604.830	12315.529
604.958	12361.529
605.087	12460.077
605.215	12512.375
605.343	12567.404
605.471	12543.087
605.599	12547.346
605.727	12693.375
605.855	12582.433
605.983	12698.433
606.112	12710.288
606.240	12710.933
606.368	12729.202
606.496	12723.904
606.624	12833.481
606.752	12821.067
606.880	12855.385
607.008	12824.423
607.137	12830.433
607.265	12956.452
607.393	12884.721
607.521	12974.038
607.649	12892.635
607.777	12916.817
607.905	12937.846
608.033	12914.788
608.162	12927.644
608.290	12917.548
608.418	13006.837
608.546	12975.548
608.674	13009.538
608.802	12919.625
608.930	12936.471
609.058	12862.183
609.187	12916.644
609.315	12930.933
609.443	12893.298
609.571	13019.269
609.699	12889.279
609.827	12955.385
609.955	12904.010
610.083	12859.250
610.212	12848.606
610.340	12842.212
610.468	12854.510
610.596	12826.279
610.724	12811.904
610.852	12860.481
610.980	12862.990
611.108	12786.846
611.237	12811.981
611.365	12829.635
611.493	12831.548
611.621	12815.298
611.749	12867.683
611.877	12922.337
612.005	12876.750
612.133	12957.087
612.262	12927.058
612.390	12968.635
612.518	12998.317
612.646	12946.721
612.774	13033.798
612.902	13037.856
613.030	13059.221
613.158	13017.365
613.287	13096.096
613.415	13026.288
613.543	13093.644
613.671	13096.327
613.799	13121.077
613.927	13160.135
614.055	13164.548
614.183	13205.202
614.312	13196.567
614.440	13350.567
614.568	13281.385
614.696	13304.558
614.824	13313.087
614.952	13414.202
615.080	13390.221
615.208	13414.260
615.337	13530.462
615.465	13453.798
615.593	13546.731
615.721	13489.606
615.849	13604.577
615.977	13561.615
616.105	13636.712
616.233	13614.837
616.362	13711.567
616.490	13642.644
616.618	13728.577
616.746	13807.894
616.874	13806.529
617.002	13821.163
617.130	13826.500
617.258	13819.615
617.387	13871.163
617.515	13885.596
617.643	13874.875
617.771	13961.519
617.899	13889.337
618.027	13986.471
618.155	13959.904
618.283	13977.721
618.412	14005.923
618.540	14038.981
618.668	14014.298
618.796	14037.942
618.924	14020.250
619.052	14040.529
619.180	13998.163
619.308	14026.221
619.437	14051.183
619.565	14058.981
619.693	13993.510
619.821	14055.625
619.949	14008.606
620.077	14077.317
620.205	14086.923
620.333	14110.067
620.462	14040.962
620.590	14087.019
620.718	14092.356
620.846	14110.298
620.974	14091.606
621.102	14118.625
621.230	14125.067
621.358	14267.673
621.487	14080.596
621.615	14137.365
621.743	14058.212
621.871	14127.106
621.999	14038.125
622.127	14075.846
622.255	14078.202
622.383	14065.865
622.512	14051.240
622.640	14046.990
622.768	14146.231
622.896	14148.827
623.024	14123.673
623.152	14093.442
623.280	14184.894
623.408	14094.894
623.537	14170.740
623.665	14070.385
623.793	14150.923
623.921	14144.385
624.049	14111.635
624.177	14103.029
624.305	14136.356
624.433	14109.635
624.562	14123.673
624.690	14234.856
624.818	14063.548
624.946	14094.250
625.074	14052.221
625.202	14096.288
625.330	14122.375
625.458	14191.375
625.587	14100.577
625.715	14151.510
625.843	14095.654
625.971	14156.163
626.099	14124.827
626.227	14145.019
626.355	14078.567
626.483	14177.433
626.612	14131.779
626.740	14189.260
626.868	14135.692
626.996	14215.952
627.124	14142.760
627.252	14149.567
627.380	14177.846
627.508	14133.337
627.637	14212.317
627.765	14251.942
627.893	14198.173
628.021	14318.010
628.149	14215.683
628.277	14332.240
628.405	14276.865
628.533	14285.433
628.662	14291.885
628.790	14379.933
628.918	14323.279
629.046	14426.087
629.174	14302.798
629.302	14386.731
629.430	14346.615
629.558	14385.327
629.687	14359.231
629.815	14442.067
629.943	14535.788
630.071	14436.356
630.199	14467.837
630.327	14502.625
630.455	14513.125
630.583	14504.808
630.712	14519.558
630.840	14562.202
630.968	14508.962
631.096	14563.596
631.224	14543.250
631.352	14686.731
631.480	14616.212
631.608	14774.173
631.737	14623.885
631.865	14714.202
631.993	14713.779
632.121	14855.029
632.249	14725.038
632.377	14692.673
632.505	14721.125
632.633	14737.644
632.762	14679.990
632.890	14691.250
633.018	14680.115
633.146	14675.356
633.274	14656.308
633.402	14740.615
633.530	14674.250
633.658	14688.529
633.787	14715.865
633.915	14698.538
634.043	14692.173
634.171	14684.712
634.299	14652.462
634.427	14662.981
634.555	14868.615
634.683	14673.625
634.812	14639.885
634.940	14604.558
635.068	14612.269
635.196	14605.365
635.324	14571.981
635.452	14586.769
635.580	14614.731
635.708	14501.663
635.837	14488.510
635.965	14464.346
636.093	14468.288
636.221	14424.288
636.349	14349.635
636.477	14376.135
636.605	14409.846
636.733	14364.471
636.862	14332.567
636.990	14324.731
637.118	14251.779
637.246	14225.096
637.374	14357.923
637.502	14178.760
637.630	14142.529
637.758	14119.125
637.887	14075.567
638.015	14186.000
638.143	14111.740
638.271	14009.308
638.399	14058.702
638.527	13947.567
638.655	13979.048
638.783	13949.788
638.912	13991.183
639.040	13853.798
639.168	13834.087
639.296	13832.298
639.424	13899.635
639.552	13821.538
639.680	13857.048
639.808	13829.731
639.937	13779.346
640.065	13718.875
640.193	13722.096
640.321	13844.346
640.449	13807.192
640.577	13731.106
640.705	13762.981
640.833	13728.606
640.962	13803.548
641.090	13683.837
641.218	13709.548
641.346	13775.875
641.474	13686.894
641.602	13708.587
641.730	13685.240
641.858	13663.981
641.987	13668.240
642.115	13818.740
642.243	13709.000
642.371	13861.144
642.499	13699.875
642.627	13759.327
642.755	13639.048
642.883	13713.894
643.012	13678.413
643.140	13736.096
643.268	13737.596
643.396	13671.490
643.524	13696.375
643.652	13789.856
643.780	13659.067
643.908	13671.779
644.037	13788.413
644.165	13751.933
644.293	13828.731
644.421	13661.173
644.549	13732.231
644.677	13733.779
644.805	13686.452
644.933	13643.798
645.062	13717.356
645.190	13798.692
645.318	13699.413
645.446	13598.760
645.574	13616.144
645.702	13648.712
645.830	13646.519
645.958	13602.462
646.087	13608.192
646.215	13571.317
646.343	13537.538
646.471	13748.375
646.599	13539.240
646.727	13554.865
646.855	13542.279
646.983	13518.308
647.112	13597.990
647.240	13511.500
647.368	13537.885
647.496	13485.385
647.624	13472.221
647.752	13438.000
647.880	13415.135
648.008	13426.413
648.137	13458.135
648.265	13376.567
648.393	13433.596
648.521	13306.433
648.649	13472.913
648.777	13395.096
648.905	13315.865
649.033	13362.462
649.162	13213.442
649.290	13151.394
649.418	13178.404
649.546	13360.279
649.674	13148.067
649.802	13127.202
649.930	13042.654
650.058	13037.260
650.187	13077.337
650.315	12998.952
650.443	13006.606
650.571	12918.413
650.699	12887.962
650.827	12882.173
650.955	12803.346
651.083	12914.981
651.212	12817.163
651.340	12819.625
651.468	12739.135
651.596	12754.423
651.724	12770.894
651.852	12670.635
651.980	12659.260
652.108	12639.990
652.237	12621.356
652.365	12567.846
652.493	12543.837
652.621	12513.394
652.749	12538.269
652.877	12494.346
653.005	12485.125
653.133	12408.048
653.262	12350.538
653.390	12343.635
653.518	12470.510
653.646	12298.442
653.774	12271.798
653.902	12338.971
654.030	12271.327
654.158	12188.952
654.287	12210.394
654.415	12150.452
654.543	12165.471
654.671	12121.885
654.799	12099.663
654.927	12069.308
655.055	12016.673
655.183	11993.288
655.312	11972.490
655.440	11952.038
655.568	11951.029
655.696	11983.462
655.824	11853.721
655.952	11865.702
656.080	11838.587
656.208	11819.846
656.337	11828.913
656.465	11962.106
656.593	11767.288
656.721	11806.490
656.849	11813.452
656.977	11605.433
657.105	11662.769
657.233	11671.894
657.362	11680.702
657.490	11631.962
657.618	11576.048
657.746	11567.096
657.874	11507.413
658.002	11428.962
658.130	11365.212
658.258	11364.875
658.387	11326.923
658.515	11290.365
658.643	11271.510
658.771	11341.500
658.899	11216.394
659.027	11221.173
659.155	11215.769
659.283	11155.385
659.412	11154.000
659.540	11129.423
659.668	11127.837
659.796	11167.385
659.924	11131.231
660.052	11156.817
660.180	11066.490
660.308	11097.769
660.437	11075.462
660.565	11020.115
660.693	10923.029
660.821	11094.971
660.949	10885.019
661.077	10898.154
661.205	11023.615
661.333	10851.894
661.462	10797.010
661.590	10904.115
661.718	10762.029
661.846	10792.038
661.974	10743.885
662.102	10725.048
662.230	10704.192
662.358	10592.471
662.487	10691.856
662.615	10645.192
662.743	10628.615
662.871	10586.308
662.999	10503.788
663.127	10492.125
663.255	10478.490
663.383	10626.413
663.512	10388.567
663.640	10461.923
663.768	10463.202
663.896	10379.962
664.024	10361.712
664.152	10340.798
664.280	10412.904
664.408	10312.913
664.537	10292.144
664.665	10320.471
664.793	10283.240
664.921	10224.250
665.049	10268.260
665.177	10165.865
665.305	10210.231
665.433	10192.067
665.562	10306.606
665.690	10155.385
665.818	10278.048
665.946	10076.058
666.074	10057.365
666.202	10065.337
666.330	10007.000
666.458	10395.077
666.587	9944.673
666.715	9965.183
666.843	9914.625
666.971	9930.154
667.099	9968.279
667.227	9979.423
667.355	9929.404
667.483	9898.644
667.612	9909.337
667.740	9838.769
667.868	9797.788
667.996	9792.356
668.124	9827.769
668.252	9894.519
668.380	9744.154
668.508	9745.019
668.637	9712.077
668.765	9737.481
668.893	9676.596
669.021	9610.144
669.149	9680.942
669.277	9555.548
669.405	9649.529
669.533	9642.433
669.662	9529.596
669.790	9524.433
669.918	9507.260
670.046	9614.154
670.174	9427.538
670.302	9412.923
670.430	9373.846
670.558	9410.000
670.687	9531.529
670.815	9325.231
670.943	9332.375
671.071	9253.567
671.199	9221.971
671.327	9247.433
671.455	9198.135
671.583	9169.779
671.712	9158.471
671.840	9174.692
671.968	9275.750
672.096	9238.740
672.224	9018.404
672.352	9014.433
672.480	8943.856
672.608	8973.356
672.737	8927.250
672.865	8879.192
672.993	8868.490
673.121	8809.808
673.249	8803.183
673.377	8777.010
673.505	8756.971
673.633	8744.558
673.762	8675.587
673.890	8679.192
674.018	8687.990
674.146	8605.279
674.274	8594.971
674.402	8589.587
674.530	8564.837
674.658	8521.365
674.787	8442.154
674.915	8567.702
675.043	8429.596
675.171	8409.587
675.299	8357.442
675.427	8299.731
675.555	8292.721
675.683	8306.288
675.812	8248.760
675.940	8227.962
676.068	8159.212
676.196	8200.019
676.324	8097.096
676.452	8054.135
676.580	8020.683
676.708	8006.712
676.837	7982.750
676.965	8091.125
677.093	8097.433
677.221	7951.231
677.349	7885.548
677.477	7957.135
677.605	7795.779
677.733	7819.048
677.862	7777.519
677.990	7747.250
678.118	7809.269
678.246	7691.240
678.374	7768.288
678.502	7677.471
678.630	7586.365
678.758	7630.981
678.887	7708.000
679.015	7509.288
679.143	7475.933
679.271	7477.769
679.399	7452.923
679.527	7473.587
679.655	7467.077
679.783	7361.433
679.912	7351.596
680.040	7516.413
680.168	7334.298
680.296	7323.385
680.424	7280.490
680.552	7243.000
680.680	7230.490
680.808	7175.990
680.937	7146.702
681.065	7225.423
681.193	7118.375
681.321	7082.750
681.449	7111.154
681.577	7075.548
681.705	7044.990
681.833	7067.885
681.962	7013.385
682.090	6962.663
682.218	6975.913
682.346	6971.452
682.474	6906.702
682.602	6906.423
682.730	6933.452
682.858	6863.923
682.987	6823.423
683.115	6875.788
683.243	6826.760
683.371	6802.250
683.499	6761.596
683.627	6794.250
683.755	6742.087
683.883	6712.154
684.012	6721.904
684.140	6674.577
684.268	6686.490
684.396	6702.692
684.524	6616.846
684.652	6649.404
684.780	6608.125
684.908	6627.548
685.037	6613.298
685.165	6556.163
685.293	6624.663
685.421	6549.000
685.549	6566.394
685.677	6498.288
685.805	6526.077
685.933	6462.596
686.062	6481.433
686.190	6420.971
686.318	6393.913
686.446	6349.798
686.574	6345.750
686.702	6417.298
686.830	6313.308
686.958	6376.529
687.087	6281.635
687.215	6285.808
687.343	6287.740
687.471	6406.702
687.599	6172.231
687.727	6186.365
687.855	6152.635
687.983	6127.135
688.112	6161.019
688.240	6105.356
688.368	6147.827
688.496	6076.433
688.624	6059.750
688.752	6192.115
688.880	6028.173
689.008	6022.519
689.137	5979.798
689.265	5931.577
689.393	5940.567
689.521	5915.058
689.649	6011.365
689.777	5914.923
689.905	5971.240
690.033	5820.788
690.162	5828.481
690.290	5848.337
690.418	5773.740
690.546	5838.163
690.674	5787.962
690.802	5799.135
690.930	5725.894
691.058	5736.548
691.187	5675.125
691.315	5667.202
691.443	5640.837
691.571	5650.452
691.699	5588.308
691.827	5590.471
691.955	5570.548
692.083	5568.894
692.212	5538.567
692.340	5515.596
692.468	5563.913
692.596	5516.644
692.724	5447.212
692.852	5491.135
692.980	5476.288
693.108	5491.837
693.237	5377.058
693.365	5395.683
693.493	5373.587
693.621	5333.875
693.749	5294.250
693.877	5371.356
694.005	5252.500
694.133	5249.625
694.262	5325.692
694.390	5194.471
694.518	5230.548
694.646	5195.433
694.774	5126.231
694.902	5110.875
695.030	5154.817
695.158	5092.202
695.287	5093.885
695.415	5062.750
695.543	5064.471
695.671	5007.683
695.799	5126.240
695.927	5001.971
696.055	5000.712
696.183	4929.317
696.312	5114.308
696.440	4943.712
696.568	4932.087
696.696	4847.471
696.824	4816.587
696.952	4812.125
697.080	4815.260
697.208	4747.019
697.337	4770.125
697.465	4749.712
697.593	4675.683
697.721	4826.212
697.849	4687.144
697.977	4716.462
698.105	4732.971
698.233	4692.740
698.362	4599.962
698.490	4733.606
698.618	4559.346
698.746	4542.683
698.874	4603.558
699.002	4572.865
699.130	4562.462
699.258	4504.510
699.387	4448.212
699.515	4496.760
699.643	4479.519
699.771	4534.625
699.899	4413.250
700.027	4378.981
700.155	4435.481
700.283	4316.808
700.412	4329.173
700.540	4357.567
700.668	4384.779
700.796	4242.317
700.924	4317.788
701.052	4291.038
701.180	4288.673
701.308	4212.337
701.437	4168.019
701.565	4153.837
701.693	4193.558
701.821	4355.529
701.949	4087.760
702.077	4136.875
702.205	4175.308
702.333	4092.827
702.462	4045.567
702.590	4108.077
702.718	3998.058
702.846	4183.885
702.974	3967.106
703.102	3966.067
703.230	3984.692
703.358	3923.413
703.487	3925.788
703.615	3892.548
703.743	3875.337
703.871	3876.731
703.999	3853.933
704.127	3835.442
704.255	3795.817
704.383	3818.135
704.512	3854.260
704.640	3823.510
704.768	3872.337
704.896	3742.683
705.024	3696.163
705.152	3718.856
705.280	3758.433
705.408	3664.615
705.537	3627.385
705.665	3654.510
705.793	3626.798
705.921	3612.135
706.049	3568.644
706.177	3614.087
706.305	3536.106
706.433	3570.106
706.562	3551.260
706.690	3557.904
706.818	3550.894
706.946	3487.154
707.074	3458.769
707.202	3437.327
707.330	3446.413
707.458	3418.317
707.587	3366.183
707.715	3433.048
707.843	3433.317
707.971	3413.971
708.099	3331.375
708.227	3333.462
708.355	3325.058
708.483	3292.788
708.612	3300.577
708.740	3261.038
708.868	3260.452
708.996	3310.365
709.124	3290.712
709.252	3255.288
709.380	3254.135
709.508	3225.644
709.637	3225.231
709.765	3190.817
709.893	3226.125
710.021	3150.346
710.149	3245.413
710.277	3093.240
710.405	3123.692
710.533	3105.317
710.662	3082.173
710.790	3207.885
710.918	3048.990
711.046	3106.308
711.174	3051.538
711.302	3078.250
711.430	3041.048
711.558	3078.442
711.687	3039.481
711.815	2984.654
711.943	2971.250
712.071	2962.135
712.199	2989.490
712.327	3048.788
712.455	2937.529
712.583	3090.298
712.712	2945.875
712.840	2972.702
712.968	2905.779
713.096	2876.154
713.224	2865.240
713.352	2866.096
713.480	2817.875
713.608	2805.212
713.737	2788.442
713.865	2852.221
713.993	2803.087
714.121	2810.606
714.249	2756.183
714.377	2759.462
714.505	2744.087
714.633	2758.817
714.762	2725.010
714.890	2711.625
715.018	2699.606
715.146	2774.346
715.274	2680.875
715.402	2671.635
715.530	2676.942
715.658	2715.952
715.787	2660.894
715.915	2773.221
716.043	2647.029
716.171	2741.712
716.299	2621.423
716.427	2678.240
716.555	2580.587
716.683	2610.058
716.812	2587.615
716.940	2555.308
717.068	2558.529
717.196	2691.019
717.324	2560.346
717.452	2564.673
717.580	2595.731
717.708	2531.106
717.837	2529.221
717.965	2552.654
718.093	2520.577
718.221	2538.115
718.349	2557.962
718.477	2478.635
718.605	2542.231
718.733	2494.202
718.862	2510.904
718.990	2482.000
719.118	2503.990
719.246	2445.558
719.374	2444.596
719.502	2471.067
719.630	2496.240
719.758	2430.846
719.887	2417.356
720.015	2427.163
720.143	2423.885
720.271	2396.375
720.399	2411.077
720.527	2384.913
720.655	2397.317
720.783	2380.029
720.912	2350.510
721.040	2343.260
721.168	2352.962
721.296	2329.327
721.424	2330.817
721.552	2319.885
721.680	2299.990
721.808	2326.394
721.937	2297.135
722.065	2273.615
722.193	2262.692
