sample5v_at_750.00nm_cut_at_1060.50Y_01.dat
19.06.2023
11:08:30
cut middle at Y: 1060.50
top cursor: 1109 down cursor: 1012 mean of: 97 lines , 2560 datapoints
wavelength(nm)	intensity[arb. units]
585.996	834.619
586.124	819.753
586.252	806.608
586.380	807.804
586.508	810.495
586.637	807.588
586.765	819.412
586.893	812.072
587.021	818.588
587.149	816.711
587.277	823.340
587.405	815.691
587.533	816.639
587.662	822.649
587.790	822.474
587.918	817.412
588.046	824.835
588.174	826.887
588.302	818.546
588.430	820.247
588.558	826.361
588.687	830.918
588.815	822.835
588.943	833.454
589.071	824.897
589.199	829.186
589.327	836.845
589.455	832.340
589.583	829.526
589.712	831.309
589.840	826.680
589.968	829.381
590.096	827.990
590.224	833.443
590.352	834.258
590.480	829.928
590.608	833.258
590.737	820.763
590.865	833.227
590.993	834.753
591.121	833.299
591.249	839.082
591.377	826.495
591.505	830.103
591.633	833.763
591.762	844.165
591.890	832.155
592.018	838.773
592.146	827.330
592.274	839.567
592.402	836.907
592.530	842.268
592.658	835.474
592.787	836.495
592.915	840.000
593.043	848.928
593.171	847.515
593.299	856.052
593.427	848.443
593.555	857.845
593.683	851.423
593.812	851.330
593.940	860.515
594.068	855.041
594.196	867.784
594.324	863.216
594.452	874.536
594.580	874.031
594.708	874.825
594.837	870.464
594.965	880.948
595.093	885.598
595.221	886.928
595.349	891.052
595.477	888.330
595.605	899.186
595.733	904.289
595.862	899.165
595.990	883.959
596.118	896.443
596.246	898.732
596.374	914.608
596.502	906.268
596.630	907.825
596.758	911.124
596.887	910.804
597.015	916.052
597.143	912.206
597.271	909.588
597.399	915.247
597.527	917.381
597.655	916.608
597.783	915.680
597.912	914.216
598.040	913.588
598.168	916.423
598.296	917.887
598.424	911.330
598.552	916.835
598.680	917.216
598.808	921.577
598.937	925.979
599.065	921.155
599.193	911.814
599.321	905.680
599.449	914.505
599.577	914.000
599.705	912.464
599.833	922.629
599.962	916.938
600.090	919.433
600.218	915.309
600.346	914.649
600.474	915.381
600.602	917.464
600.730	923.196
600.858	924.082
600.987	927.175
601.115	928.557
601.243	927.969
601.371	926.876
601.499	930.134
601.627	927.474
601.755	945.278
601.883	941.608
602.012	942.330
602.140	944.216
602.268	949.299
602.396	950.608
602.524	952.753
602.652	955.278
602.780	960.845
602.908	967.990
603.037	968.412
603.165	968.907
603.293	979.598
603.421	983.876
603.549	975.412
603.677	986.557
603.805	986.887
603.933	989.196
604.062	998.433
604.190	994.629
604.318	1001.701
604.446	1009.093
604.574	1005.701
604.702	1015.629
604.830	1013.536
604.958	1030.928
605.087	1036.361
605.215	1046.536
605.343	1035.206
605.471	1041.330
605.599	1036.175
605.727	1049.381
605.855	1046.629
605.983	1047.093
606.112	1061.052
606.240	1060.454
606.368	1070.443
606.496	1061.629
606.624	1055.000
606.752	1061.680
606.880	1061.052
607.008	1067.856
607.137	1071.351
607.265	1073.381
607.393	1081.423
607.521	1062.670
607.649	1071.186
607.777	1071.608
607.905	1075.918
608.033	1079.351
608.162	1071.773
608.290	1076.206
608.418	1088.041
608.546	1084.577
608.674	1088.711
608.802	1083.423
608.930	1092.928
609.058	1091.876
609.187	1088.175
609.315	1086.330
609.443	1085.959
609.571	1080.588
609.699	1085.876
609.827	1083.845
609.955	1084.454
610.083	1084.505
610.212	1081.299
610.340	1093.072
610.468	1092.505
610.596	1090.052
610.724	1090.773
610.852	1099.237
610.980	1107.278
611.108	1102.845
611.237	1095.567
611.365	1100.773
611.493	1111.639
611.621	1100.124
611.749	1113.649
611.877	1120.340
612.005	1110.206
612.133	1109.588
612.262	1122.784
612.390	1117.928
612.518	1121.722
612.646	1130.887
612.774	1141.577
612.902	1136.979
613.030	1138.165
613.158	1138.062
613.287	1152.928
613.415	1149.412
613.543	1156.557
613.671	1161.691
613.799	1156.124
613.927	1165.351
614.055	1180.990
614.183	1179.536
614.312	1174.186
614.440	1181.103
614.568	1182.732
614.696	1190.278
614.824	1198.340
614.952	1204.722
615.080	1200.433
615.208	1204.041
615.337	1218.423
615.465	1211.227
615.593	1220.598
615.721	1224.237
615.849	1220.670
615.977	1222.495
616.105	1230.928
616.233	1228.825
616.362	1238.186
616.490	1234.196
616.618	1251.474
616.746	1233.567
616.874	1258.773
617.002	1249.598
617.130	1255.526
617.258	1243.784
617.387	1249.845
617.515	1261.309
617.643	1270.546
617.771	1271.619
617.899	1265.825
618.027	1266.505
618.155	1280.093
618.283	1270.165
618.412	1274.763
618.540	1275.742
618.668	1284.289
618.796	1272.588
618.924	1296.186
619.052	1295.928
619.180	1299.433
619.308	1284.670
619.437	1296.474
619.565	1298.577
619.693	1293.670
619.821	1298.515
619.949	1301.742
620.077	1295.649
620.205	1306.216
620.333	1306.959
620.462	1312.062
620.590	1312.268
620.718	1310.031
620.846	1304.948
620.974	1309.794
621.102	1314.165
621.230	1326.247
621.358	1328.969
621.487	1321.876
621.615	1329.144
621.743	1341.505
621.871	1326.082
621.999	1326.722
622.127	1328.536
622.255	1347.495
622.383	1335.876
622.512	1346.330
622.640	1335.155
622.768	1350.299
622.896	1331.505
623.024	1337.361
623.152	1349.835
623.280	1346.619
623.408	1346.711
623.537	1345.608
623.665	1343.897
623.793	1344.010
623.921	1349.588
624.049	1349.856
624.177	1357.588
624.305	1355.247
624.433	1349.897
624.562	1357.062
624.690	1361.062
624.818	1361.567
624.946	1356.412
625.074	1342.010
625.202	1361.351
625.330	1347.340
625.458	1376.794
625.587	1373.474
625.715	1357.979
625.843	1368.464
625.971	1363.454
626.099	1369.526
626.227	1385.742
626.355	1359.918
626.483	1386.526
626.612	1376.227
626.740	1379.072
626.868	1389.897
626.996	1379.598
627.124	1391.392
627.252	1398.340
627.380	1391.948
627.508	1396.969
627.637	1402.021
627.765	1404.876
627.893	1408.722
628.021	1400.691
628.149	1415.918
628.277	1415.196
628.405	1418.165
628.533	1428.557
628.662	1418.258
628.790	1431.464
628.918	1431.216
629.046	1437.598
629.174	1432.134
629.302	1442.567
629.430	1446.711
629.558	1442.309
629.687	1439.722
629.815	1450.845
629.943	1462.495
630.071	1452.588
630.199	1459.052
630.327	1452.196
630.455	1458.278
630.583	1474.784
630.712	1473.928
630.840	1470.773
630.968	1495.557
631.096	1494.691
631.224	1482.990
631.352	1480.804
631.480	1497.206
631.608	1498.103
631.737	1491.701
631.865	1504.887
631.993	1494.825
632.121	1504.124
632.249	1511.433
632.377	1525.113
632.505	1499.515
632.633	1508.412
632.762	1520.423
632.890	1520.247
633.018	1528.227
633.146	1518.289
633.274	1523.773
633.402	1518.052
633.530	1520.320
633.658	1525.990
633.787	1515.866
633.915	1528.454
634.043	1523.134
634.171	1533.938
634.299	1545.052
634.427	1532.371
634.555	1535.299
634.683	1534.113
634.812	1527.835
634.940	1531.680
635.068	1514.371
635.196	1528.464
635.324	1537.505
635.452	1538.474
635.580	1534.691
635.708	1532.546
635.837	1533.165
635.965	1531.041
636.093	1523.103
636.221	1518.577
636.349	1527.072
636.477	1517.918
636.605	1522.351
636.733	1513.680
636.862	1511.289
636.990	1518.031
637.118	1516.196
637.246	1515.918
637.374	1504.082
637.502	1503.186
637.630	1517.021
637.758	1506.567
637.887	1521.649
638.015	1507.093
638.143	1523.299
638.271	1503.515
638.399	1509.402
638.527	1509.351
638.655	1510.918
638.783	1521.320
638.912	1517.887
639.040	1505.629
639.168	1509.876
639.296	1516.608
639.424	1508.464
639.552	1515.536
639.680	1513.392
639.808	1498.175
639.937	1511.979
640.065	1514.773
640.193	1529.361
640.321	1523.897
640.449	1532.093
640.577	1508.825
640.705	1509.464
640.833	1525.124
640.962	1531.216
641.090	1518.041
641.218	1519.546
641.346	1513.155
641.474	1519.402
641.602	1513.897
641.730	1527.856
641.858	1529.124
641.987	1521.948
642.115	1539.536
642.243	1533.567
642.371	1535.629
642.499	1527.814
642.627	1536.598
642.755	1529.742
642.883	1550.866
643.012	1539.979
643.140	1529.876
643.268	1536.639
643.396	1539.093
643.524	1559.175
643.652	1544.866
643.780	1551.948
643.908	1550.155
644.037	1549.124
644.165	1550.948
644.293	1551.979
644.421	1545.464
644.549	1554.546
644.677	1565.289
644.805	1560.907
644.933	1547.299
645.062	1555.866
645.190	1544.897
645.318	1538.959
645.446	1560.412
645.574	1559.526
645.702	1562.093
645.830	1565.113
645.958	1573.959
646.087	1566.670
646.215	1560.773
646.343	1570.619
646.471	1560.722
646.599	1570.309
646.727	1559.701
646.855	1552.536
646.983	1563.309
647.112	1570.082
647.240	1567.216
647.368	1543.000
647.496	1547.082
647.624	1541.887
647.752	1544.402
647.880	1545.887
648.008	1567.041
648.137	1540.948
648.265	1535.247
648.393	1538.320
648.521	1542.546
648.649	1531.691
648.777	1539.237
648.905	1519.670
649.033	1527.567
649.162	1516.546
649.290	1519.856
649.418	1508.670
649.546	1525.753
649.674	1524.804
649.802	1508.670
649.930	1509.485
650.058	1503.124
650.187	1517.258
650.315	1506.485
650.443	1497.948
650.571	1504.216
650.699	1508.299
650.827	1512.639
650.955	1490.722
651.083	1490.567
651.212	1493.495
651.340	1485.464
651.468	1500.629
651.596	1489.619
651.724	1502.639
651.852	1482.557
651.980	1477.804
652.108	1484.753
652.237	1470.000
652.365	1471.907
652.493	1481.649
652.621	1464.031
652.749	1473.216
652.877	1470.763
653.005	1469.216
653.133	1471.402
653.262	1463.794
653.390	1467.021
653.518	1469.124
653.646	1450.969
653.774	1448.711
653.902	1466.577
654.030	1440.649
654.158	1438.876
654.287	1447.340
654.415	1443.299
654.543	1438.485
654.671	1450.763
654.799	1435.454
654.927	1444.732
655.055	1429.691
655.183	1424.742
655.312	1419.546
655.440	1431.629
655.568	1417.186
655.696	1424.072
655.824	1430.165
655.952	1412.423
656.080	1411.979
656.208	1420.186
656.337	1412.876
656.465	1420.062
656.593	1416.041
656.721	1405.649
656.849	1405.732
656.977	1395.031
657.105	1400.371
657.233	1393.103
657.362	1394.144
657.490	1383.309
657.618	1398.237
657.746	1392.825
657.874	1382.206
658.002	1384.536
658.130	1379.485
658.258	1373.113
658.387	1367.588
658.515	1351.474
658.643	1369.021
658.771	1370.289
658.899	1364.093
659.027	1357.402
659.155	1362.866
659.283	1344.814
659.412	1344.598
659.540	1347.536
659.668	1365.186
659.796	1337.381
659.924	1336.588
660.052	1334.443
660.180	1339.639
660.308	1329.948
660.437	1316.784
660.565	1324.041
660.693	1316.454
660.821	1321.814
660.949	1326.598
661.077	1310.928
661.205	1322.216
661.333	1306.237
661.462	1311.052
661.590	1299.072
661.718	1307.670
661.846	1297.845
661.974	1300.072
662.102	1295.454
662.230	1299.289
662.358	1291.227
662.487	1291.979
662.615	1275.557
662.743	1288.474
662.871	1286.732
662.999	1280.485
663.127	1270.454
663.255	1277.577
663.383	1284.361
663.512	1281.247
663.640	1276.134
663.768	1267.206
663.896	1272.351
664.024	1260.515
664.152	1262.124
664.280	1275.093
664.408	1259.990
664.537	1247.598
664.665	1255.557
664.793	1252.278
664.921	1247.299
665.049	1240.000
665.177	1260.309
665.305	1246.691
665.433	1242.474
665.562	1241.309
665.690	1236.330
665.818	1243.433
665.946	1231.237
666.074	1237.144
666.202	1238.186
666.330	1224.000
666.458	1227.567
666.587	1229.660
666.715	1231.948
666.843	1223.010
666.971	1228.856
667.099	1228.691
667.227	1231.887
667.355	1212.928
667.483	1210.845
667.612	1210.412
667.740	1216.412
667.868	1216.320
667.996	1213.392
668.124	1210.237
668.252	1213.639
668.380	1197.567
668.508	1206.866
668.637	1207.557
668.765	1202.928
668.893	1197.423
669.021	1195.381
669.149	1190.247
669.277	1183.938
669.405	1190.062
669.533	1180.835
669.662	1188.979
669.790	1159.814
669.918	1168.928
670.046	1175.660
670.174	1165.938
670.302	1169.505
670.430	1151.093
670.558	1160.577
670.687	1152.928
670.815	1147.742
670.943	1156.763
671.071	1145.701
671.199	1149.247
671.327	1137.299
671.455	1136.113
671.583	1142.330
671.712	1116.711
671.840	1131.794
671.968	1121.969
672.096	1110.227
672.224	1113.041
672.352	1110.021
672.480	1106.959
672.608	1101.546
672.737	1103.505
672.865	1098.866
672.993	1093.443
673.121	1091.000
673.249	1092.649
673.377	1080.680
673.505	1075.629
673.633	1073.381
673.762	1080.113
673.890	1070.124
674.018	1071.948
674.146	1066.753
674.274	1059.959
674.402	1054.433
674.530	1052.722
674.658	1051.423
674.787	1030.247
674.915	1044.247
675.043	1046.845
675.171	1031.670
675.299	1019.742
675.427	1025.629
675.555	1015.938
675.683	1010.175
675.812	1008.639
675.940	1004.402
676.068	1004.835
676.196	997.722
676.324	998.062
676.452	992.887
676.580	990.340
676.708	984.165
676.837	992.515
676.965	980.567
677.093	979.835
677.221	969.680
677.349	956.639
677.477	962.866
677.605	957.969
677.733	959.021
677.862	966.536
677.990	958.701
678.118	952.454
678.246	943.268
678.374	937.887
678.502	942.959
678.630	937.608
678.758	940.206
678.887	920.804
679.015	941.887
679.143	934.887
679.271	926.773
679.399	925.701
679.527	913.763
679.655	914.835
679.783	915.206
679.912	904.639
680.040	908.165
680.168	906.010
680.296	900.454
680.424	900.196
680.552	900.794
680.680	893.258
680.808	881.856
680.937	887.629
681.065	886.124
681.193	887.866
681.321	885.402
681.449	885.907
681.577	874.433
681.705	874.660
681.833	876.474
681.962	871.732
682.090	876.175
682.218	875.876
682.346	869.918
682.474	873.041
682.602	861.959
682.730	858.784
682.858	861.423
682.987	865.402
683.115	839.258
683.243	850.546
683.371	854.485
683.499	848.763
683.627	855.309
683.755	848.392
683.883	847.825
684.012	841.804
684.140	832.351
684.268	838.526
684.396	834.464
684.524	836.412
684.652	836.608
684.780	837.660
684.908	836.021
685.037	833.938
685.165	833.784
685.293	827.804
685.421	820.701
685.549	829.619
685.677	815.567
685.805	810.680
685.933	823.732
686.062	815.072
686.190	813.660
686.318	816.784
686.446	806.412
686.574	805.515
686.702	802.784
686.830	803.938
686.958	794.124
687.087	802.701
687.215	792.732
687.343	800.320
687.471	801.474
687.599	793.959
687.727	789.959
687.855	789.402
687.983	785.876
688.112	784.412
688.240	783.784
688.368	777.887
688.496	778.093
688.624	784.392
688.752	777.289
688.880	777.330
689.008	766.897
689.137	763.495
689.265	770.392
689.393	758.031
689.521	762.196
689.649	765.258
689.777	756.103
689.905	753.948
690.033	751.299
690.162	751.979
690.290	747.495
690.418	750.619
690.546	748.103
690.674	749.155
690.802	738.381
690.930	734.485
691.058	729.825
691.187	724.598
691.315	726.371
691.443	721.515
691.571	720.474
691.699	714.412
691.827	708.753
691.955	711.515
692.083	718.371
692.212	709.588
692.340	706.031
692.468	707.567
692.596	698.423
692.724	704.206
692.852	698.258
692.980	696.031
693.108	693.979
693.237	688.722
693.365	686.588
693.493	687.856
693.621	685.660
693.749	679.979
693.877	685.031
694.005	676.753
694.133	684.546
694.262	670.309
694.390	668.155
694.518	665.371
694.646	674.351
694.774	668.474
694.902	657.186
695.030	662.021
695.158	654.402
695.287	655.876
695.415	647.330
695.543	656.763
695.671	654.639
695.799	641.608
695.927	645.763
696.055	641.701
696.183	647.010
696.312	646.155
696.440	630.990
696.568	640.773
696.696	626.670
696.824	629.918
696.952	631.505
697.080	623.691
697.208	625.753
697.337	623.041
697.465	622.196
697.593	617.918
697.721	614.216
697.849	615.526
697.977	613.268
698.105	614.124
698.233	613.402
698.362	606.680
698.490	610.206
698.618	608.742
698.746	610.412
698.874	602.887
699.002	598.969
699.130	594.608
699.258	589.361
699.387	595.691
699.515	588.639
699.643	589.196
699.771	584.763
699.899	584.237
700.027	582.959
700.155	584.711
700.283	580.526
700.412	576.680
700.540	579.124
700.668	576.546
700.796	571.206
700.924	562.278
701.052	563.701
701.180	566.175
701.308	569.588
701.437	558.567
701.565	558.763
701.693	553.443
701.821	562.351
701.949	552.371
702.077	557.227
702.205	548.124
702.333	548.196
702.462	546.856
702.590	540.330
702.718	538.619
702.846	539.691
702.974	544.031
703.102	540.732
703.230	531.062
703.358	532.103
703.487	520.969
703.615	526.784
703.743	523.670
703.871	517.804
703.999	519.144
704.127	516.093
704.255	511.598
704.383	517.784
704.512	498.371
704.640	509.351
704.768	507.464
704.896	502.701
705.024	498.948
705.152	497.381
705.280	503.495
705.408	494.814
705.537	495.897
705.665	492.216
705.793	486.062
705.921	492.753
706.049	486.763
706.177	486.670
706.305	490.845
706.433	477.155
706.562	479.082
706.690	476.433
706.818	476.309
706.946	474.103
707.074	472.144
707.202	465.619
707.330	463.670
707.458	473.649
707.587	467.330
707.715	464.773
707.843	456.835
707.971	458.567
708.099	459.165
708.227	452.464
708.355	451.619
708.483	455.990
708.612	455.113
708.740	455.598
708.868	447.639
708.996	453.691
709.124	445.866
709.252	441.381
709.380	440.897
709.508	437.701
709.637	438.680
709.765	433.134
709.893	433.990
710.021	431.907
710.149	431.113
710.277	431.330
710.405	431.402
710.533	427.330
710.662	429.505
710.790	430.196
710.918	424.258
711.046	430.062
711.174	424.010
711.302	419.629
711.430	417.969
711.558	423.247
711.687	419.918
711.815	420.979
711.943	419.443
712.071	415.577
712.199	413.887
712.327	413.680
712.455	408.320
712.583	409.103
712.712	416.175
712.840	407.052
712.968	403.825
713.096	401.515
713.224	401.340
713.352	402.887
713.480	403.289
713.608	401.588
713.737	402.701
713.865	402.165
713.993	396.371
714.121	389.433
714.249	397.010
714.377	394.515
714.505	394.845
714.633	391.959
714.762	387.186
714.890	392.052
715.018	388.351
715.146	388.175
715.274	383.464
715.402	386.938
715.530	387.701
715.658	385.866
715.787	378.649
715.915	380.887
716.043	382.381
716.171	386.412
716.299	381.072
716.427	380.670
716.555	377.577
716.683	379.340
716.812	376.536
716.940	374.897
717.068	373.845
717.196	373.186
717.324	369.237
717.452	362.103
717.580	366.515
717.708	368.485
717.837	368.474
717.965	365.186
718.093	363.515
718.221	359.907
718.349	362.474
718.477	361.866
718.605	358.351
718.733	358.000
718.862	355.588
718.990	353.155
719.118	356.464
719.246	356.278
719.374	351.588
719.502	350.227
719.630	351.907
719.758	347.371
719.887	348.062
720.015	344.093
720.143	347.155
720.271	352.866
720.399	344.784
720.527	343.485
720.655	340.928
720.783	343.072
720.912	338.546
721.040	338.381
721.168	337.196
721.296	340.052
721.424	333.330
721.552	333.134
721.680	332.103
721.808	329.907
721.937	332.361
722.065	329.763
722.193	329.670
722.321	326.773
722.449	325.567
722.577	324.299
722.705	324.113
722.833	328.113
722.962	324.495
723.090	322.588
723.218	322.907
723.346	317.062
723.474	320.979
723.602	317.557
723.730	314.289
723.858	315.443
723.987	315.567
724.115	312.546
724.243	311.814
724.371	314.155
724.499	308.351
724.627	305.113
724.755	303.227
724.883	308.876
725.012	303.402
725.140	303.371
725.268	307.701
725.396	297.165
725.524	303.113
725.652	302.124
725.780	295.691
725.908	292.062
726.037	295.845
726.165	296.660
726.293	294.165
726.421	292.103
726.549	292.474
726.677	290.196
726.805	295.196
726.933	295.567
727.062	288.361
727.190	283.289
727.318	287.711
727.446	288.722
727.574	283.577
727.702	281.948
727.830	287.691
727.958	281.711
728.087	280.144
728.215	280.691
728.343	275.155
728.471	282.206
728.599	280.186
728.727	276.660
728.855	277.557
728.983	278.443
729.112	273.010
729.240	275.495
729.368	273.835
729.496	275.351
729.624	273.938
729.752	271.443
729.880	272.969
730.008	272.485
730.137	269.948
730.265	271.711
730.393	264.732
730.521	265.887
730.649	265.309
730.777	261.907
730.905	261.588
731.033	258.041
731.162	264.309
731.290	260.289
731.418	260.392
731.546	256.598
731.674	252.722
731.802	254.784
731.930	260.526
732.058	260.320
732.187	259.402
732.315	258.072
732.443	255.948
732.571	257.113
732.699	257.278
732.827	252.856
732.955	251.979
733.083	250.794
733.212	250.711
733.340	250.485
733.468	247.505
733.596	247.237
733.724	247.680
733.852	246.732
733.980	245.742
734.108	244.804
734.237	243.948
734.365	242.196
734.493	247.866
734.621	243.278
734.749	244.515
734.877	245.649
735.005	245.464
735.133	244.608
735.262	239.897
735.390	237.454
735.518	239.773
735.646	236.577
735.774	236.598
735.902	239.763
736.030	238.464
736.158	238.041
736.287	234.340
736.415	243.134
736.543	235.711
736.671	230.072
736.799	236.309
736.927	233.381
737.055	231.175
737.183	231.990
737.312	229.041
737.440	227.835
737.568	231.155
737.696	228.278
737.824	226.165
737.952	227.495
738.080	225.804
738.208	224.639
738.337	227.381
738.465	224.608
738.593	218.608
738.721	222.742
738.849	223.268
738.977	222.103
739.105	221.876
739.233	221.134
739.362	217.505
739.490	217.381
739.618	216.969
739.746	219.237
739.874	217.629
