90_130_90_Pol_at_750.00nm_cut_at_1179.00Y_01.dat
03.07.2023
11:32:02
cut middle at Y: 1179.00
top cursor: 1231 down cursor: 1127 mean of: 104 lines , 2560 datapoints
wavelength(nm)	intensity[arb. units]
585.996	9940.673
586.124	9753.337
586.252	9732.798
586.380	9737.827
586.508	9790.721
586.637	9870.615
586.765	9831.192
586.893	9890.481
587.021	9911.606
587.149	9912.692
587.277	9966.308
587.405	9944.212
587.533	9996.904
587.662	10023.192
587.790	10008.721
587.918	9998.779
588.046	9959.779
588.174	10008.144
588.302	10013.885
588.430	10038.404
588.558	10065.404
588.687	10051.471
588.815	10056.548
588.943	10057.952
589.071	10039.471
589.199	10028.567
589.327	10045.692
589.455	10103.423
589.583	10076.913
589.712	10070.490
589.840	10039.192
589.968	10055.029
590.096	10063.365
590.224	10054.808
590.352	10136.163
590.480	10063.202
590.608	10030.192
590.737	10055.077
590.865	10164.135
590.993	9993.221
591.121	10070.183
591.249	10055.769
591.377	10065.010
591.505	10190.433
591.633	10041.712
591.762	10072.115
591.890	10072.798
592.018	10159.250
592.146	10118.442
592.274	10108.365
592.402	10099.971
592.530	10262.923
592.658	10173.077
592.787	10173.288
592.915	10253.038
593.043	10124.096
593.171	10188.365
593.299	10203.173
593.427	10184.731
593.555	10227.308
593.683	10228.952
593.812	10248.894
593.940	10236.346
594.068	10262.894
594.196	10278.529
594.324	10274.894
594.452	10496.317
594.580	10361.500
594.708	10408.933
594.837	10399.606
594.965	10477.433
595.093	10448.971
595.221	10536.490
595.349	10513.231
595.477	10508.317
595.605	10538.923
595.733	10551.192
595.862	10605.558
595.990	10607.452
596.118	10658.462
596.246	10693.087
596.374	10643.635
596.502	10643.942
596.630	10681.702
596.758	10663.846
596.887	10654.875
597.015	10696.731
597.143	10700.981
597.271	10709.548
597.399	10721.308
597.527	10733.067
597.655	10731.615
597.783	10758.567
597.912	10760.817
598.040	10787.365
598.168	10732.462
598.296	10737.173
598.424	10903.837
598.552	10729.567
598.680	10741.308
598.808	10789.067
598.937	10749.875
599.065	10730.731
599.193	10806.856
599.321	10779.942
599.449	10748.346
599.577	10737.260
599.705	10749.673
599.833	10711.500
599.962	10683.192
600.090	10742.760
600.218	10723.702
600.346	10720.115
600.474	10688.144
600.602	10686.096
600.730	10709.375
600.858	10722.413
600.987	10789.615
601.115	10763.317
601.243	10822.038
601.371	10828.490
601.499	10845.750
601.627	10793.760
601.755	10773.240
601.883	10853.663
602.012	10763.875
602.140	10873.087
602.268	10856.462
602.396	10981.481
602.524	10842.067
602.652	10955.192
602.780	10914.885
602.908	10972.154
603.037	11033.538
603.165	11033.817
603.293	11027.452
603.421	11099.519
603.549	11135.519
603.677	11147.663
603.805	11149.644
603.933	11176.240
604.062	11270.346
604.190	11289.250
604.318	11289.260
604.446	11281.538
604.574	11370.712
604.702	11384.827
604.830	11381.577
604.958	11409.038
605.087	11455.625
605.215	11552.125
605.343	11607.269
605.471	11600.538
605.599	11591.721
605.727	11706.471
605.855	11647.163
605.983	11730.567
606.112	11757.769
606.240	11755.519
606.368	11783.740
606.496	11756.029
606.624	11842.433
606.752	11799.558
606.880	11881.885
607.008	11824.192
607.137	11795.356
607.265	11948.663
607.393	11898.394
607.521	11968.990
607.649	11903.462
607.777	11922.192
607.905	11970.404
608.033	11924.067
608.162	11925.260
608.290	11918.644
608.418	12021.202
608.546	11983.740
608.674	12026.567
608.802	11916.731
608.930	11949.058
609.058	11907.413
609.187	11904.712
609.315	11929.673
609.443	11886.269
609.571	12027.808
609.699	11872.288
609.827	11988.923
609.955	11922.337
610.083	11871.221
610.212	11874.942
610.340	11845.510
610.468	11861.240
610.596	11858.490
610.724	11813.587
610.852	11870.712
610.980	11843.808
611.108	11801.144
611.237	11805.731
611.365	11835.192
611.493	11808.490
611.621	11833.548
611.749	11839.442
611.877	11901.587
612.005	11827.538
612.133	11909.106
612.262	11887.038
612.390	11949.452
612.518	11946.279
612.646	11897.952
612.774	11992.837
612.902	11996.606
613.030	11974.635
613.158	11945.529
613.287	12051.663
613.415	11956.029
613.543	12021.115
613.671	12023.202
613.799	12076.067
613.927	12106.365
614.055	12124.962
614.183	12070.000
614.312	12094.981
614.440	12245.894
614.568	12190.500
614.696	12215.846
614.824	12214.096
614.952	12265.587
615.080	12277.038
615.208	12332.798
615.337	12427.615
615.465	12369.365
615.593	12401.240
615.721	12380.221
615.849	12498.971
615.977	12453.788
616.105	12518.442
616.233	12513.096
616.362	12542.481
616.490	12548.337
616.618	12573.933
616.746	12705.779
616.874	12690.375
617.002	12688.317
617.130	12712.865
617.258	12662.683
617.387	12713.385
617.515	12750.740
617.643	12735.327
617.771	12839.692
617.899	12769.327
618.027	12791.337
618.155	12821.221
618.283	12820.519
618.412	12832.663
618.540	12904.990
618.668	12840.269
618.796	12861.779
618.924	12821.212
619.052	12872.760
619.180	12862.519
619.308	12848.692
619.437	12836.971
619.565	12862.317
619.693	12852.817
619.821	12888.356
619.949	12848.500
620.077	12877.212
620.205	12925.385
620.333	12931.038
620.462	12873.808
620.590	12899.462
620.718	12938.269
620.846	12917.163
620.974	12896.337
621.102	12961.644
621.230	12931.077
621.358	13095.394
621.487	12885.788
621.615	12942.077
621.743	12863.894
621.871	12957.394
621.999	12847.038
622.127	12903.356
622.255	12875.125
622.383	12858.019
622.512	12870.298
622.640	12856.183
622.768	12912.260
622.896	12932.596
623.024	12920.712
623.152	12861.038
623.280	12953.250
623.408	12876.981
623.537	12933.683
623.665	12849.510
623.793	12935.894
623.921	12913.875
624.049	12879.606
624.177	12877.962
624.305	12879.971
624.433	12867.731
624.562	12913.260
624.690	13008.413
624.818	12854.125
624.946	12868.317
625.074	12825.558
625.202	12843.808
625.330	12875.538
625.458	12971.817
625.587	12849.519
625.715	12943.817
625.843	12868.231
625.971	12894.971
626.099	12901.885
626.227	12925.490
626.355	12883.413
626.483	12944.769
626.612	12875.462
626.740	12931.279
626.868	12882.365
626.996	12945.577
627.124	12916.933
627.252	12917.769
627.380	12907.404
627.508	12881.606
627.637	12942.750
627.765	12950.683
627.893	13002.221
628.021	13052.971
628.149	12952.413
628.277	13036.519
628.405	13002.865
628.533	13014.567
628.662	13035.490
628.790	13125.394
628.918	13039.279
629.046	13157.721
629.174	13048.423
629.302	13119.317
629.430	13057.106
629.558	13089.740
629.687	13089.827
629.815	13161.029
629.943	13233.519
630.071	13179.644
630.199	13176.856
630.327	13223.000
630.455	13214.490
630.583	13179.173
630.712	13230.837
630.840	13263.635
630.968	13247.221
631.096	13274.981
631.224	13312.327
631.352	13406.962
631.480	13339.615
631.608	13539.442
631.737	13300.769
631.865	13449.817
631.993	13408.904
632.121	13555.567
632.249	13391.413
632.377	13405.529
632.505	13416.452
632.633	13422.692
632.762	13376.000
632.890	13453.087
633.018	13397.846
633.146	13425.923
633.274	13419.788
633.402	13430.250
633.530	13393.183
633.658	13405.077
633.787	13374.885
633.915	13382.029
634.043	13435.462
634.171	13415.067
634.299	13422.558
634.427	13387.558
634.555	13629.942
634.683	13373.904
634.812	13414.317
634.940	13353.163
635.068	13335.019
635.196	13364.894
635.324	13327.558
635.452	13322.038
635.580	13422.663
635.708	13249.375
635.837	13278.808
635.965	13241.096
636.093	13196.683
636.221	13196.962
636.349	13150.375
636.477	13136.288
636.605	13169.087
636.733	13141.529
636.862	13110.298
636.990	13124.067
637.118	13072.471
637.246	13013.510
637.374	13147.721
637.502	12962.442
637.630	12964.433
637.758	12968.067
637.887	12902.673
638.015	13016.798
638.143	12961.413
638.271	12835.144
638.399	12889.721
638.527	12784.163
638.655	12823.519
638.783	12822.192
638.912	12859.462
639.040	12751.740
639.168	12727.192
639.296	12710.519
639.424	12775.625
639.552	12716.365
639.680	12756.058
639.808	12735.067
639.937	12662.433
640.065	12643.606
640.193	12647.481
640.321	12722.990
640.449	12728.317
640.577	12595.462
640.705	12648.337
640.833	12618.712
640.962	12728.471
641.090	12620.875
641.218	12592.048
641.346	12672.356
641.474	12650.356
641.602	12608.827
641.730	12600.904
641.858	12605.856
641.987	12557.125
642.115	12775.471
642.243	12591.712
642.371	12768.346
642.499	12616.654
642.627	12684.077
642.755	12607.308
642.883	12642.875
643.012	12628.952
643.140	12650.567
643.268	12681.663
643.396	12620.769
643.524	12631.010
643.652	12717.423
643.780	12612.990
643.908	12610.471
644.037	12746.923
644.165	12732.067
644.293	12828.558
644.421	12607.654
644.549	12666.587
644.677	12662.308
644.805	12636.077
644.933	12642.067
645.062	12653.567
645.190	12813.933
645.318	12644.962
645.446	12588.231
645.574	12593.260
645.702	12651.269
645.830	12655.731
645.958	12596.750
646.087	12609.125
646.215	12581.135
646.343	12589.548
646.471	12741.596
646.599	12599.106
646.727	12588.481
646.855	12551.779
646.983	12532.327
647.112	12598.663
647.240	12533.567
647.368	12628.337
647.496	12539.692
647.624	12546.981
647.752	12545.760
647.880	12508.106
648.008	12525.163
648.137	12559.317
648.265	12496.183
648.393	12544.644
648.521	12436.625
648.649	12586.577
648.777	12499.760
648.905	12427.769
649.033	12513.769
649.162	12385.663
649.290	12320.635
649.418	12326.010
649.546	12501.452
649.674	12320.500
649.802	12288.644
649.930	12237.077
650.058	12207.731
650.187	12260.846
650.315	12174.808
650.443	12212.615
650.571	12162.375
650.699	12116.779
650.827	12109.144
650.955	12075.452
651.083	12168.740
651.212	12055.000
651.340	12064.337
651.468	11988.817
651.596	12021.769
651.724	12010.019
651.852	11975.115
651.980	11934.279
652.108	11913.654
652.237	11914.423
652.365	11852.654
652.493	11832.904
652.621	11801.010
652.749	11807.144
652.877	11793.452
653.005	11826.038
653.133	11759.500
653.262	11730.923
653.390	11696.442
653.518	11839.962
653.646	11662.548
653.774	11611.519
653.902	11725.462
654.030	11640.471
654.158	11597.067
654.287	11612.837
654.415	11572.875
654.543	11593.144
654.671	11563.750
654.799	11524.269
654.927	11511.510
655.055	11470.798
655.183	11462.606
655.312	11467.308
655.440	11407.115
655.568	11423.442
655.696	11466.990
655.824	11389.971
655.952	11368.750
656.080	11301.337
656.208	11340.635
656.337	11327.990
656.465	11487.500
656.593	11298.808
656.721	11309.596
656.849	11380.538
656.977	11177.404
657.105	11227.683
657.233	11206.212
657.362	11246.692
657.490	11214.913
657.618	11176.317
657.746	11172.279
657.874	11060.202
658.002	11045.115
658.130	11043.731
658.258	11003.087
658.387	10936.144
658.515	10956.548
658.643	10924.990
658.771	10997.413
658.899	10875.096
659.027	10916.490
659.155	10879.625
659.283	10846.250
659.412	10847.529
659.540	10817.615
659.668	10863.221
659.796	10898.279
659.924	10819.433
660.052	10915.981
660.180	10822.106
660.308	10849.548
660.437	10852.423
660.565	10761.913
660.693	10689.990
660.821	10867.673
660.949	10672.173
661.077	10697.096
661.205	10796.000
661.333	10630.990
661.462	10611.558
661.590	10727.212
661.718	10598.346
661.846	10611.654
661.974	10556.769
662.102	10571.038
662.230	10571.529
662.358	10452.317
662.487	10540.000
662.615	10495.375
662.743	10501.058
662.871	10495.288
662.999	10378.702
663.127	10387.115
663.255	10377.173
663.383	10530.500
663.512	10307.288
663.640	10408.279
663.768	10409.952
663.896	10312.490
664.024	10315.596
664.152	10304.260
664.280	10395.769
664.408	10261.385
664.537	10237.327
664.665	10283.260
664.793	10273.048
664.921	10227.596
665.049	10272.394
665.177	10198.154
665.305	10205.577
665.433	10178.308
665.562	10322.471
665.690	10194.654
665.818	10322.740
665.946	10112.865
666.074	10112.510
666.202	10133.740
666.330	10057.154
666.458	10479.048
666.587	10047.452
666.715	10067.654
666.843	10026.269
666.971	10035.404
667.099	10052.692
667.227	10081.808
667.355	10078.933
667.483	9993.365
667.612	10006.990
667.740	10008.962
667.868	9941.087
667.996	9943.010
668.124	9989.808
668.252	10054.500
668.380	9915.067
668.508	9938.471
668.637	9877.846
668.765	9916.442
668.893	9894.019
669.021	9822.385
669.149	9888.423
669.277	9796.519
669.405	9898.500
669.533	9877.087
669.662	9786.106
669.790	9768.577
669.918	9781.769
670.046	9899.135
670.174	9675.740
670.302	9693.317
670.430	9633.740
670.558	9700.163
670.687	9795.856
670.815	9637.971
670.943	9660.346
671.071	9558.096
671.199	9537.163
671.327	9536.548
671.455	9567.038
671.583	9512.144
671.712	9477.260
671.840	9547.990
671.968	9629.231
672.096	9588.173
672.224	9374.663
672.352	9404.163
672.480	9319.644
672.608	9381.952
672.737	9333.019
672.865	9252.423
672.993	9260.885
673.121	9228.827
673.249	9222.269
673.377	9156.606
673.505	9149.760
673.633	9217.221
673.762	9102.404
673.890	9119.038
674.018	9088.385
674.146	9045.981
674.274	9081.587
674.402	9102.625
674.530	9035.981
674.658	8993.721
674.787	8968.769
674.915	9098.346
675.043	8915.942
675.171	8925.462
675.299	8861.385
675.427	8830.712
675.555	8811.433
675.683	8837.173
675.812	8767.462
675.940	8739.865
676.068	8716.346
676.196	8724.596
676.324	8668.442
676.452	8626.731
676.580	8579.510
676.708	8582.548
676.837	8561.702
676.965	8671.048
677.093	8690.971
677.221	8530.769
677.349	8476.740
677.477	8544.356
677.605	8429.558
677.733	8413.269
677.862	8411.490
677.990	8399.260
678.118	8415.644
678.246	8349.394
678.374	8389.365
678.502	8283.644
678.630	8232.115
678.758	8258.529
678.887	8370.452
679.015	8168.356
679.143	8134.981
679.271	8125.346
679.399	8122.038
679.527	8138.125
679.655	8165.817
679.783	8038.058
679.912	8059.567
680.040	8201.625
680.168	7994.096
680.296	8007.663
680.424	7970.394
680.552	7951.913
680.680	7932.288
680.808	7903.019
680.937	7865.394
681.065	7940.904
681.193	7849.154
681.321	7813.375
681.449	7850.212
681.577	7812.327
681.705	7791.221
681.833	7811.817
681.962	7785.558
682.090	7725.558
682.218	7725.385
682.346	7720.356
682.474	7672.990
682.602	7662.423
682.730	7699.865
682.858	7627.423
682.987	7633.952
683.115	7663.029
683.243	7569.394
683.371	7617.962
683.499	7560.769
683.627	7598.529
683.755	7556.788
683.883	7512.913
684.012	7547.490
684.140	7475.558
684.268	7496.308
684.396	7560.327
684.524	7462.942
684.652	7495.269
684.780	7481.837
684.908	7480.125
685.037	7462.913
685.165	7408.596
685.293	7505.837
685.421	7414.962
685.549	7408.144
685.677	7343.702
685.805	7398.712
685.933	7355.135
686.062	7362.433
686.190	7314.846
686.318	7309.231
686.446	7281.087
686.574	7249.385
686.702	7326.462
686.830	7241.048
686.958	7277.596
687.087	7192.106
687.215	7228.394
687.343	7200.038
687.471	7327.067
687.599	7132.442
687.727	7127.587
687.855	7108.385
687.983	7069.933
688.112	7119.808
688.240	7069.519
688.368	7078.702
688.496	7015.856
688.624	6986.519
688.752	7164.788
688.880	6978.500
689.008	6947.019
689.137	7001.221
689.265	6917.423
689.393	6889.654
689.521	6920.529
689.649	7014.750
689.777	6901.269
689.905	6969.413
690.033	6834.308
690.162	6824.163
690.290	6853.423
690.418	6787.673
690.546	6840.500
690.674	6809.538
690.802	6821.327
690.930	6747.413
691.058	6727.115
691.187	6685.788
691.315	6641.154
691.443	6658.731
691.571	6686.183
691.699	6608.894
691.827	6593.702
691.955	6596.519
692.083	6585.337
692.212	6568.837
692.340	6532.385
692.468	6594.644
692.596	6533.250
692.724	6487.423
692.852	6534.212
692.980	6497.192
693.108	6542.202
693.237	6413.798
693.365	6392.731
693.493	6382.154
693.621	6385.615
693.749	6306.577
693.877	6397.000
694.005	6318.462
694.133	6281.865
694.262	6337.173
694.390	6231.712
694.518	6238.769
694.646	6225.837
694.774	6162.548
694.902	6154.135
695.030	6188.904
695.158	6132.596
695.287	6122.510
695.415	6114.221
695.543	6102.019
695.671	6023.288
695.799	6169.971
695.927	6067.125
696.055	6033.817
696.183	5972.394
696.312	6161.481
696.440	6000.952
696.568	5983.567
696.696	5888.567
696.824	5851.817
696.952	5863.231
697.080	5862.962
697.208	5801.981
697.337	5811.038
697.465	5769.962
697.593	5744.308
697.721	5850.942
697.849	5714.596
697.977	5744.212
698.105	5783.779
698.233	5700.692
698.362	5646.990
698.490	5768.452
698.618	5605.644
698.746	5591.788
698.874	5639.933
699.002	5601.423
699.130	5625.346
699.258	5547.856
699.387	5485.962
699.515	5531.058
699.643	5534.538
699.771	5579.346
699.899	5437.865
700.027	5387.385
700.155	5469.135
700.283	5338.827
700.412	5380.010
700.540	5380.798
700.668	5416.000
700.796	5305.288
700.924	5358.125
701.052	5325.173
701.180	5314.933
701.308	5235.452
701.437	5206.577
701.565	5209.029
701.693	5239.087
701.821	5380.510
701.949	5133.615
702.077	5144.356
702.205	5227.452
702.333	5136.298
702.462	5054.423
702.590	5127.231
702.718	5041.644
702.846	5211.788
702.974	5017.596
703.102	4988.779
703.230	5015.971
703.358	4951.731
703.487	4946.933
703.615	4910.846
703.743	4879.683
703.871	4868.846
703.999	4871.577
704.127	4825.000
704.255	4801.971
704.383	4832.904
704.512	4875.096
704.640	4822.231
704.768	4874.529
704.896	4734.865
705.024	4698.173
705.152	4724.519
705.280	4742.856
705.408	4644.769
705.537	4621.952
705.665	4643.510
705.793	4614.385
705.921	4607.942
706.049	4544.385
706.177	4603.327
706.305	4531.933
706.433	4575.913
706.562	4544.904
706.690	4538.798
706.818	4515.913
706.946	4462.413
707.074	4433.067
707.202	4402.519
707.330	4428.058
707.458	4383.587
707.587	4343.731
707.715	4379.481
707.843	4364.385
707.971	4386.875
708.099	4306.010
708.227	4278.981
708.355	4280.202
708.483	4244.317
708.612	4285.077
708.740	4210.933
708.868	4212.875
708.996	4273.510
709.124	4257.077
709.252	4196.846
709.380	4198.346
709.508	4151.663
709.637	4175.856
709.765	4132.644
709.893	4161.038
710.021	4093.750
710.149	4184.952
710.277	4034.269
710.405	4056.279
710.533	4069.375
710.662	4026.087
710.790	4135.087
710.918	3993.788
711.046	4066.904
711.174	3989.673
711.302	4015.558
711.430	3963.981
711.558	3999.337
711.687	3954.663
711.815	3906.067
711.943	3894.596
712.071	3883.202
712.199	3908.596
712.327	3948.327
712.455	3858.144
712.583	3990.933
712.712	3868.038
712.840	3882.010
712.968	3815.308
713.096	3804.538
713.224	3796.087
713.352	3797.663
713.480	3713.038
713.608	3721.192
713.737	3705.615
713.865	3755.587
713.993	3716.019
714.121	3710.394
714.249	3665.702
714.377	3662.894
714.505	3656.731
714.633	3651.000
714.762	3613.952
714.890	3623.317
715.018	3603.442
715.146	3635.644
715.274	3574.606
715.402	3560.702
715.530	3553.702
715.658	3597.269
715.787	3545.663
715.915	3628.837
716.043	3527.788
716.171	3634.856
716.299	3493.413
716.427	3548.394
716.555	3462.702
716.683	3445.529
716.812	3454.048
716.940	3429.394
717.068	3392.144
717.196	3553.442
717.324	3429.010
717.452	3404.875
717.580	3433.683
717.708	3359.288
717.837	3359.837
717.965	3387.308
718.093	3341.337
718.221	3377.192
718.349	3374.923
718.477	3307.904
718.605	3364.413
718.733	3330.952
718.862	3332.971
718.990	3258.337
719.118	3307.885
719.246	3224.875
719.374	3215.433
719.502	3259.163
719.630	3340.942
719.758	3181.596
719.887	3160.240
720.015	3219.644
720.143	3220.510
720.271	3116.567
720.399	3186.298
720.527	3153.394
720.655	3206.029
720.783	3110.712
720.912	3084.279
721.040	3092.702
721.168	3105.837
721.296	3043.788
721.424	3031.567
721.552	3026.038
721.680	3078.529
721.808	3026.904
721.937	3021.163
722.065	3047.692
722.193	2991.865
