sample2h_at_750.00nm_cut_at_1200.50Y_01.dat
19.06.2023
10:50:18
cut middle at Y: 1200.50
top cursor: 1249 down cursor: 1152 mean of: 97 lines , 2560 datapoints
wavelength(nm)	intensity[arb. units]
585.996	1197.041
586.124	1148.423
586.252	1151.639
586.380	1162.546
586.508	1151.845
586.637	1162.639
586.765	1154.742
586.893	1159.031
587.021	1154.979
587.149	1171.598
587.277	1165.351
587.405	1174.423
587.533	1161.103
587.662	1157.216
587.790	1174.897
587.918	1174.887
588.046	1172.062
588.174	1178.309
588.302	1177.278
588.430	1167.619
588.558	1182.309
588.687	1174.320
588.815	1183.392
588.943	1176.010
589.071	1182.165
589.199	1181.753
589.327	1190.443
589.455	1188.216
589.583	1197.031
589.712	1189.134
589.840	1183.505
589.968	1188.062
590.096	1198.072
590.224	1187.856
590.352	1199.897
590.480	1197.546
590.608	1200.000
590.737	1200.124
590.865	1197.948
590.993	1204.588
591.121	1205.794
591.249	1210.701
591.377	1208.340
591.505	1211.907
591.633	1207.773
591.762	1214.763
591.890	1220.155
592.018	1223.464
592.146	1211.196
592.274	1217.794
592.402	1210.959
592.530	1222.072
592.658	1224.103
592.787	1226.082
592.915	1221.701
593.043	1219.289
593.171	1208.433
593.299	1224.216
593.427	1219.186
593.555	1216.340
593.683	1229.082
593.812	1238.485
593.940	1232.680
594.068	1235.856
594.196	1234.629
594.324	1238.000
594.452	1239.474
594.580	1236.258
594.708	1246.495
594.837	1232.155
594.965	1243.959
595.093	1245.701
595.221	1251.443
595.349	1255.072
595.477	1256.320
595.605	1261.670
595.733	1250.835
595.862	1261.062
595.990	1252.351
596.118	1259.928
596.246	1252.629
596.374	1261.990
596.502	1262.670
596.630	1272.320
596.758	1269.340
596.887	1266.041
597.015	1269.124
597.143	1266.515
597.271	1267.433
597.399	1277.433
597.527	1265.082
597.655	1259.268
597.783	1256.227
597.912	1265.433
598.040	1271.773
598.168	1283.557
598.296	1259.969
598.424	1269.093
598.552	1258.443
598.680	1269.320
598.808	1265.495
598.937	1266.897
599.065	1270.814
599.193	1261.371
599.321	1259.392
599.449	1268.897
599.577	1267.979
599.705	1264.196
599.833	1276.856
599.962	1257.773
600.090	1263.258
600.218	1266.918
600.346	1267.814
600.474	1260.948
600.602	1270.773
600.730	1268.887
600.858	1269.278
600.987	1270.639
601.115	1275.237
601.243	1270.227
601.371	1279.959
601.499	1275.464
601.627	1273.289
601.755	1285.320
601.883	1286.876
602.012	1292.072
602.140	1281.794
602.268	1294.835
602.396	1293.258
602.524	1298.897
602.652	1297.412
602.780	1320.722
602.908	1309.577
603.037	1310.948
603.165	1307.794
603.293	1324.134
603.421	1306.330
603.549	1329.711
603.677	1332.041
603.805	1324.907
603.933	1341.371
604.062	1341.402
604.190	1342.897
604.318	1355.876
604.446	1342.216
604.574	1347.041
604.702	1355.670
604.830	1350.433
604.958	1357.031
605.087	1364.134
605.215	1361.876
605.343	1380.103
605.471	1365.021
605.599	1364.103
605.727	1369.134
605.855	1390.330
605.983	1378.454
606.112	1377.557
606.240	1389.866
606.368	1388.546
606.496	1380.443
606.624	1394.144
606.752	1382.330
606.880	1384.371
607.008	1385.887
607.137	1381.526
607.265	1390.113
607.393	1385.505
607.521	1380.784
607.649	1404.361
607.777	1384.299
607.905	1385.485
608.033	1399.557
608.162	1378.753
608.290	1381.588
608.418	1381.660
608.546	1374.474
608.674	1385.268
608.802	1389.691
608.930	1381.227
609.058	1399.485
609.187	1388.082
609.315	1375.907
609.443	1381.918
609.571	1389.423
609.699	1377.680
609.827	1393.340
609.955	1380.485
610.083	1372.165
610.212	1372.649
610.340	1384.629
610.468	1395.175
610.596	1379.103
610.724	1377.144
610.852	1378.639
610.980	1391.577
611.108	1393.711
611.237	1402.165
611.365	1371.392
611.493	1388.134
611.621	1373.753
611.749	1385.423
611.877	1395.866
612.005	1391.062
612.133	1396.536
612.262	1406.031
612.390	1390.402
612.518	1398.186
612.646	1393.918
612.774	1398.505
612.902	1389.196
613.030	1399.907
613.158	1406.268
613.287	1420.474
613.415	1411.299
613.543	1414.794
613.671	1417.804
613.799	1413.412
613.927	1423.918
614.055	1433.351
614.183	1423.423
614.312	1421.742
614.440	1417.495
614.568	1425.474
614.696	1422.649
614.824	1426.000
614.952	1426.485
615.080	1427.227
615.208	1435.392
615.337	1447.742
615.465	1416.588
615.593	1424.856
615.721	1438.794
615.849	1430.124
615.977	1444.175
616.105	1436.062
616.233	1448.196
616.362	1445.907
616.490	1455.464
616.618	1457.866
616.746	1455.536
616.874	1448.763
617.002	1453.505
617.130	1468.649
617.258	1446.907
617.387	1438.165
617.515	1454.577
617.643	1447.732
617.771	1466.412
617.899	1460.124
618.027	1447.330
618.155	1465.515
618.283	1454.948
618.412	1461.711
618.540	1452.753
618.668	1471.711
618.796	1455.093
618.924	1468.082
619.052	1469.361
619.180	1459.639
619.308	1473.784
619.437	1483.464
619.565	1461.536
619.693	1471.773
619.821	1481.186
619.949	1484.247
620.077	1474.814
620.205	1473.258
620.333	1474.351
620.462	1486.505
620.590	1479.845
620.718	1493.711
620.846	1476.959
620.974	1464.948
621.102	1480.454
621.230	1487.588
621.358	1476.887
621.487	1477.969
621.615	1476.794
621.743	1479.887
621.871	1471.608
621.999	1472.093
622.127	1480.206
622.255	1489.165
622.383	1485.320
622.512	1476.258
622.640	1478.103
622.768	1485.845
622.896	1465.567
623.024	1477.454
623.152	1480.072
623.280	1488.649
623.408	1470.804
623.537	1488.299
623.665	1487.237
623.793	1488.701
623.921	1472.763
624.049	1489.371
624.177	1479.299
624.305	1481.588
624.433	1493.113
624.562	1483.072
624.690	1488.021
624.818	1489.289
624.946	1492.196
625.074	1485.402
625.202	1486.588
625.330	1472.732
625.458	1495.186
625.587	1478.227
625.715	1490.918
625.843	1499.608
625.971	1480.948
626.099	1486.948
626.227	1496.660
626.355	1496.845
626.483	1475.897
626.612	1492.392
626.740	1496.227
626.868	1487.330
626.996	1487.278
627.124	1477.701
627.252	1491.959
627.380	1495.165
627.508	1483.990
627.637	1490.113
627.765	1487.299
627.893	1496.464
628.021	1484.082
628.149	1501.031
628.277	1508.660
628.405	1499.258
628.533	1494.814
628.662	1484.093
628.790	1493.979
628.918	1494.866
629.046	1484.763
629.174	1494.763
629.302	1498.340
629.430	1498.381
629.558	1507.206
629.687	1497.577
629.815	1497.701
629.943	1509.784
630.071	1508.062
630.199	1501.247
630.327	1522.062
630.455	1508.268
630.583	1507.464
630.712	1513.876
630.840	1527.629
630.968	1519.433
631.096	1521.206
631.224	1513.103
631.352	1521.536
631.480	1513.485
631.608	1524.093
631.737	1523.485
631.865	1520.546
631.993	1518.691
632.121	1529.361
632.249	1527.979
632.377	1533.505
632.505	1528.433
632.633	1531.814
632.762	1536.660
632.890	1532.701
633.018	1533.392
633.146	1525.670
633.274	1538.649
633.402	1529.010
633.530	1528.258
633.658	1540.794
633.787	1534.000
633.915	1532.247
634.043	1515.052
634.171	1534.351
634.299	1526.052
634.427	1515.134
634.555	1540.433
634.683	1532.753
634.812	1528.649
634.940	1534.206
635.068	1517.392
635.196	1534.031
635.324	1523.258
635.452	1524.887
635.580	1524.691
635.708	1522.485
635.837	1512.773
635.965	1509.959
636.093	1505.289
636.221	1503.216
636.349	1503.371
636.477	1503.340
636.605	1501.010
636.733	1499.278
636.862	1501.000
636.990	1496.392
637.118	1508.557
637.246	1508.784
637.374	1497.144
637.502	1496.000
637.630	1485.629
637.758	1478.876
637.887	1495.918
638.015	1491.454
638.143	1496.072
638.271	1481.505
638.399	1482.567
638.527	1475.619
638.655	1482.979
638.783	1478.464
638.912	1496.021
639.040	1484.134
639.168	1472.392
639.296	1473.082
639.424	1478.845
639.552	1473.247
639.680	1478.536
639.808	1477.041
639.937	1468.763
640.065	1469.309
640.193	1479.402
640.321	1481.938
640.449	1470.175
640.577	1477.289
640.705	1473.309
640.833	1468.588
640.962	1471.990
641.090	1474.021
641.218	1463.567
641.346	1458.268
641.474	1466.175
641.602	1471.928
641.730	1463.876
641.858	1473.515
641.987	1477.155
642.115	1474.825
642.243	1481.598
642.371	1483.856
642.499	1482.155
642.627	1477.897
642.755	1459.247
642.883	1478.289
643.012	1469.928
643.140	1484.773
643.268	1482.402
643.396	1472.722
643.524	1482.443
643.652	1484.381
643.780	1473.670
643.908	1475.835
644.037	1476.103
644.165	1477.784
644.293	1480.680
644.421	1479.381
644.549	1471.289
644.677	1489.639
644.805	1471.082
644.933	1467.289
645.062	1488.340
645.190	1480.330
645.318	1476.897
645.446	1476.588
645.574	1489.918
645.702	1472.216
645.830	1481.000
645.958	1481.268
646.087	1463.485
646.215	1485.577
646.343	1461.608
646.471	1490.454
646.599	1461.557
646.727	1465.155
646.855	1447.412
646.983	1467.588
647.112	1460.969
647.240	1484.113
647.368	1457.835
647.496	1439.969
647.624	1450.206
647.752	1466.381
647.880	1459.691
648.008	1464.784
648.137	1465.495
648.265	1444.876
648.393	1457.876
648.521	1453.258
648.649	1454.515
648.777	1444.557
648.905	1442.897
649.033	1449.495
649.162	1439.969
649.290	1425.402
649.418	1433.412
649.546	1440.753
649.674	1436.835
649.802	1438.959
649.930	1431.948
650.058	1424.474
650.187	1425.784
650.315	1414.742
650.443	1414.732
650.571	1417.082
650.699	1416.608
650.827	1420.443
650.955	1431.753
651.083	1419.804
651.212	1409.784
651.340	1418.876
651.468	1427.196
651.596	1412.887
651.724	1393.258
651.852	1395.979
651.980	1398.433
652.108	1401.629
652.237	1404.258
652.365	1383.216
652.493	1399.103
652.621	1383.804
652.749	1390.010
652.877	1393.144
653.005	1390.082
653.133	1375.247
653.262	1386.227
653.390	1379.247
653.518	1388.567
653.646	1377.639
653.774	1374.856
653.902	1382.165
654.030	1384.144
654.158	1370.670
654.287	1376.619
654.415	1353.928
654.543	1368.639
654.671	1362.299
654.799	1359.392
654.927	1355.103
655.055	1352.155
655.183	1352.165
655.312	1349.629
655.440	1347.804
655.568	1346.052
655.696	1348.175
655.824	1354.928
655.952	1338.000
656.080	1345.639
656.208	1342.959
656.337	1340.835
656.465	1338.423
656.593	1343.649
656.721	1333.887
656.849	1334.856
656.977	1335.041
657.105	1333.680
657.233	1322.216
657.362	1331.485
657.490	1326.526
657.618	1324.753
657.746	1324.567
657.874	1318.000
658.002	1314.608
658.130	1322.856
658.258	1315.464
658.387	1308.381
658.515	1304.485
658.643	1316.474
658.771	1318.701
658.899	1314.619
659.027	1300.186
659.155	1307.505
659.283	1299.103
659.412	1308.093
659.540	1299.206
659.668	1310.392
659.796	1287.557
659.924	1300.485
660.052	1307.918
660.180	1285.454
660.308	1286.722
660.437	1290.144
660.565	1292.340
660.693	1291.423
660.821	1291.557
660.949	1303.258
661.077	1288.670
661.205	1288.464
661.333	1290.216
661.462	1298.309
661.590	1277.021
661.718	1288.546
661.846	1278.619
661.974	1294.515
662.102	1271.000
662.230	1279.691
662.358	1276.433
662.487	1275.680
662.615	1278.856
662.743	1275.948
662.871	1281.402
662.999	1263.990
663.127	1271.948
663.255	1270.948
663.383	1273.928
663.512	1271.639
663.640	1266.536
663.768	1267.557
663.896	1268.474
664.024	1260.412
664.152	1256.299
664.280	1265.268
664.408	1248.113
664.537	1252.361
664.665	1262.887
664.793	1260.103
664.921	1251.289
665.049	1272.206
665.177	1255.536
665.305	1258.495
665.433	1248.722
665.562	1269.814
665.690	1252.526
665.818	1233.423
665.946	1254.856
666.074	1252.784
666.202	1247.278
666.330	1244.206
666.458	1335.351
666.587	1245.299
666.715	1259.773
666.843	1234.082
666.971	1232.619
667.099	1249.454
667.227	1240.495
667.355	1257.237
667.483	1245.536
667.612	1237.557
667.740	1244.567
667.868	1241.629
667.996	1240.423
668.124	1252.392
668.252	1237.938
668.380	1228.722
668.508	1237.165
668.637	1221.186
668.765	1232.722
668.893	1229.392
669.021	1231.268
669.149	1221.598
669.277	1219.237
669.405	1229.103
669.533	1221.639
669.662	1224.515
669.790	1224.309
669.918	1217.247
670.046	1215.041
670.174	1221.196
670.302	1201.835
670.430	1205.258
670.558	1208.505
670.687	1200.155
670.815	1209.351
670.943	1206.247
671.071	1191.794
671.199	1199.825
671.327	1190.608
671.455	1199.464
671.583	1201.062
671.712	1191.155
671.840	1181.567
671.968	1187.598
672.096	1177.546
672.224	1169.278
672.352	1175.433
672.480	1174.320
672.608	1168.227
672.737	1167.000
672.865	1178.732
672.993	1170.918
673.121	1167.371
673.249	1155.000
673.377	1157.330
673.505	1169.918
673.633	1161.814
673.762	1154.175
673.890	1155.866
674.018	1147.979
674.146	1154.041
674.274	1139.825
674.402	1138.773
674.530	1136.701
674.658	1141.155
674.787	1133.763
674.915	1132.608
675.043	1134.381
675.171	1131.526
675.299	1120.928
675.427	1130.742
675.555	1133.753
675.683	1111.619
675.812	1119.804
675.940	1108.691
676.068	1110.412
676.196	1117.526
676.324	1114.557
676.452	1106.732
676.580	1097.536
676.708	1109.052
676.837	1104.072
676.965	1102.907
677.093	1108.268
677.221	1096.464
677.349	1090.072
677.477	1090.144
677.605	1102.619
677.733	1087.732
677.862	1088.216
677.990	1076.392
678.118	1078.990
678.246	1072.392
678.374	1079.041
678.502	1084.433
678.630	1070.876
678.758	1077.165
678.887	1072.907
679.015	1068.433
679.143	1057.330
679.271	1063.495
679.399	1064.763
679.527	1061.010
679.655	1058.619
679.783	1059.526
679.912	1061.794
680.040	1053.361
680.168	1057.990
680.296	1053.309
680.424	1054.165
680.552	1049.619
680.680	1049.598
680.808	1040.186
680.937	1045.330
681.065	1040.454
681.193	1041.598
681.321	1036.062
681.449	1027.897
681.577	1038.351
681.705	1026.794
681.833	1031.835
681.962	1037.918
682.090	1038.948
682.218	1032.258
682.346	1025.227
682.474	1028.742
682.602	1020.887
682.730	1015.093
682.858	1020.402
682.987	1011.959
683.115	1011.402
683.243	1024.381
683.371	1017.577
683.499	1008.247
683.627	1003.598
683.755	1006.381
683.883	1010.546
684.012	1003.175
684.140	1016.701
684.268	1003.515
684.396	996.825
684.524	1009.381
684.652	1011.495
684.780	1003.258
684.908	1015.309
685.037	1011.268
685.165	991.680
685.293	1004.320
685.421	999.670
685.549	996.887
685.677	1004.670
685.805	999.814
685.933	1001.062
686.062	1002.402
686.190	997.402
686.318	1000.392
686.446	986.577
686.574	986.938
686.702	983.082
686.830	997.062
686.958	1006.433
687.087	1005.021
687.215	990.722
687.343	978.876
687.471	990.206
687.599	980.268
687.727	992.814
687.855	978.722
687.983	986.175
688.112	989.474
688.240	976.773
688.368	983.773
688.496	990.072
688.624	970.247
688.752	983.443
688.880	973.959
689.008	968.701
689.137	982.144
689.265	969.567
689.393	969.938
689.521	961.227
689.649	976.660
689.777	958.330
689.905	960.134
690.033	972.495
690.162	964.196
690.290	955.371
690.418	958.485
690.546	958.165
690.674	963.784
690.802	958.608
690.930	952.814
691.058	942.722
691.187	937.515
691.315	943.031
691.443	944.412
691.571	943.093
691.699	941.866
691.827	950.722
691.955	934.990
692.083	945.742
692.212	936.021
692.340	938.526
692.468	930.670
692.596	932.361
692.724	932.289
692.852	923.845
692.980	920.247
693.108	920.804
693.237	920.979
693.365	922.196
693.493	921.258
693.621	906.299
693.749	911.608
693.877	907.711
694.005	909.526
694.133	903.742
694.262	894.361
694.390	899.979
694.518	903.660
694.646	895.887
694.774	899.732
694.902	892.165
695.030	889.041
695.158	899.763
695.287	880.711
695.415	886.371
695.543	879.649
695.671	883.660
695.799	888.062
695.927	876.371
696.055	871.237
696.183	884.165
696.312	873.722
696.440	871.330
696.568	873.990
696.696	855.959
696.824	862.216
696.952	865.670
697.080	871.402
697.208	858.629
697.337	858.515
697.465	851.722
697.593	865.258
697.721	850.052
697.849	859.763
697.977	847.907
698.105	849.639
698.233	852.495
698.362	845.464
698.490	859.278
698.618	853.918
698.746	838.268
698.874	840.082
699.002	839.680
699.130	831.402
699.258	844.289
699.387	839.278
699.515	832.309
699.643	834.660
699.771	829.196
699.899	821.072
700.027	822.227
700.155	827.299
700.283	817.041
700.412	815.299
700.540	825.959
700.668	819.536
700.796	812.835
700.924	805.629
701.052	805.649
701.180	812.340
701.308	801.588
701.437	803.062
701.565	809.402
701.693	793.227
701.821	798.227
701.949	801.990
702.077	788.887
702.205	787.557
702.333	787.680
702.462	783.722
702.590	790.247
702.718	774.948
702.846	781.320
702.974	782.485
703.102	787.763
703.230	764.680
703.358	765.619
703.487	769.155
703.615	766.856
703.743	766.979
703.871	766.412
703.999	758.175
704.127	762.959
704.255	749.680
704.383	751.969
704.512	757.052
704.640	739.093
704.768	746.320
704.896	744.124
705.024	739.814
705.152	744.464
705.280	747.629
705.408	727.938
705.537	737.351
705.665	734.938
705.793	732.691
705.921	733.608
706.049	717.691
706.177	720.175
706.305	725.680
706.433	726.031
706.562	716.742
706.690	720.237
706.818	716.021
706.946	718.680
707.074	716.639
707.202	706.330
707.330	698.887
707.458	713.464
707.587	709.216
707.715	707.082
707.843	704.639
707.971	702.247
708.099	698.773
708.227	698.072
708.355	698.979
708.483	706.588
708.612	703.227
708.740	694.165
708.868	696.361
708.996	690.495
709.124	686.423
709.252	701.124
709.380	698.701
709.508	682.113
709.637	685.299
709.765	680.103
709.893	689.887
710.021	681.052
710.149	679.990
710.277	678.835
710.405	677.402
710.533	677.979
710.662	670.206
710.790	680.361
710.918	673.268
711.046	678.464
711.174	668.041
711.302	668.711
711.430	671.711
711.558	679.897
711.687	667.371
711.815	664.742
711.943	668.577
712.071	665.845
712.199	669.423
712.327	663.907
712.455	660.990
712.583	671.041
712.712	665.361
712.840	662.330
712.968	652.144
713.096	661.299
713.224	656.278
713.352	664.412
713.480	668.082
713.608	661.454
713.737	662.124
713.865	648.124
713.993	660.000
714.121	663.763
714.249	660.340
714.377	651.216
714.505	657.433
714.633	657.433
714.762	648.381
714.890	644.979
715.018	654.443
715.146	650.247
715.274	645.309
715.402	648.175
715.530	640.392
715.658	637.186
715.787	639.732
715.915	641.866
716.043	642.670
716.171	633.454
716.299	631.845
716.427	643.237
716.555	638.031
716.683	638.598
716.812	629.412
716.940	647.485
717.068	633.216
717.196	628.856
717.324	631.041
717.452	621.278
717.580	635.113
717.708	630.330
717.837	625.691
717.965	627.371
718.093	632.464
718.221	619.629
718.349	619.536
718.477	630.082
718.605	627.031
718.733	621.990
718.862	618.268
718.990	624.299
719.118	627.660
719.246	614.629
719.374	615.979
719.502	608.309
719.630	620.155
719.758	613.381
719.887	608.010
720.015	603.258
720.143	607.423
720.271	612.897
720.399	610.072
720.527	601.021
720.655	602.577
720.783	599.351
720.912	605.670
721.040	596.814
721.168	608.062
721.296	593.196
721.424	599.361
721.552	600.691
721.680	593.268
721.808	588.309
721.937	592.237
722.065	589.825
722.193	596.031
722.321	595.351
722.449	586.701
722.577	587.052
722.705	580.443
722.833	581.186
722.962	581.557
723.090	584.186
723.218	581.608
723.346	578.113
723.474	579.619
723.602	571.619
723.730	577.423
723.858	573.753
723.987	574.938
724.115	577.577
724.243	581.670
724.371	570.691
724.499	579.670
724.627	566.835
724.755	576.031
724.883	566.495
725.012	570.320
725.140	567.938
725.268	564.320
725.396	560.340
725.524	568.938
725.652	559.670
725.780	561.495
725.908	557.443
726.037	561.433
726.165	557.536
726.293	557.773
726.421	558.072
726.549	556.691
726.677	556.289
726.805	554.278
726.933	550.608
727.062	549.794
727.190	544.577
727.318	552.041
727.446	548.938
727.574	542.876
727.702	541.330
727.830	548.577
727.958	537.433
728.087	545.474
728.215	533.247
728.343	542.526
728.471	539.237
728.599	544.567
728.727	541.804
728.855	536.165
728.983	532.588
729.112	536.763
729.240	537.763
729.368	537.608
729.496	534.299
729.624	539.918
729.752	530.753
729.880	527.216
730.008	528.670
730.137	532.845
730.265	533.227
730.393	531.309
730.521	527.887
730.649	531.423
730.777	527.526
730.905	524.825
731.033	524.268
731.162	525.062
731.290	529.588
731.418	527.052
731.546	522.247
731.674	528.876
731.802	523.866
731.930	526.392
732.058	518.485
732.187	517.711
732.315	517.423
732.443	526.742
732.571	525.412
732.699	518.825
732.827	519.113
732.955	525.155
733.083	517.629
733.212	522.784
733.340	521.103
733.468	523.412
733.596	522.278
733.724	513.216
733.852	519.546
733.980	511.052
734.108	517.969
734.237	513.371
734.365	522.701
734.493	515.330
734.621	520.082
734.749	519.340
734.877	510.814
735.005	518.897
735.133	516.773
735.262	518.474
735.390	509.907
735.518	512.557
735.646	511.876
735.774	510.608
735.902	510.722
736.030	516.825
736.158	512.763
736.287	511.175
736.415	520.485
736.543	511.711
736.671	509.474
736.799	516.062
736.927	512.969
737.055	509.340
737.183	508.330
737.312	504.608
737.440	509.216
737.568	505.680
737.696	514.289
737.824	512.330
737.952	525.196
738.080	503.309
