sample2u_at_750.00nm_cut_at_1200.50Y_01.dat
19.06.2023
10:49:54
cut middle at Y: 1200.50
top cursor: 1249 down cursor: 1152 mean of: 97 lines , 2560 datapoints
wavelength(nm)	intensity[arb. units]
585.996	3227.402
586.124	3130.010
586.252	3091.340
586.380	3112.608
586.508	3121.258
586.637	3169.227
586.765	3103.454
586.893	3118.474
587.021	3180.753
587.149	3110.021
587.277	3123.856
587.405	3132.423
587.533	3173.557
587.662	3219.495
587.790	3164.619
587.918	3165.371
588.046	3141.918
588.174	3167.928
588.302	3155.237
588.430	3131.773
588.558	3185.392
588.687	3185.794
588.815	3166.629
588.943	3200.052
589.071	3167.443
589.199	3187.000
589.327	3186.289
589.455	3283.155
589.583	3224.351
589.712	3217.505
589.840	3213.515
589.968	3208.969
590.096	3223.784
590.224	3184.227
590.352	3240.093
590.480	3199.546
590.608	3234.629
590.737	3227.990
590.865	3350.361
590.993	3220.474
591.121	3284.464
591.249	3226.454
591.377	3226.866
591.505	3367.918
591.633	3234.340
591.762	3260.052
591.890	3249.351
592.018	3361.588
592.146	3247.082
592.274	3267.000
592.402	3218.526
592.530	3435.351
592.658	3319.701
592.787	3283.093
592.915	3349.474
593.043	3272.031
593.171	3279.433
593.299	3315.649
593.427	3300.299
593.555	3321.320
593.683	3299.041
593.812	3334.175
593.940	3324.938
594.068	3329.124
594.196	3325.928
594.324	3349.113
594.452	3537.814
594.580	3373.979
594.708	3417.278
594.837	3370.464
594.965	3441.567
595.093	3405.351
595.221	3447.000
595.349	3402.845
595.477	3413.031
595.605	3416.784
595.733	3417.845
595.862	3455.835
595.990	3481.928
596.118	3522.021
596.246	3555.763
596.374	3458.928
596.502	3465.103
596.630	3499.639
596.758	3496.464
596.887	3500.165
597.015	3487.567
597.143	3488.278
597.271	3512.701
597.399	3533.000
597.527	3507.536
597.655	3492.021
597.783	3510.845
597.912	3517.608
598.040	3538.835
598.168	3506.938
598.296	3482.629
598.424	3683.763
598.552	3516.247
598.680	3506.897
598.808	3535.701
598.937	3498.794
599.065	3511.969
599.193	3559.361
599.321	3543.144
599.449	3495.990
599.577	3496.845
599.705	3551.856
599.833	3516.598
599.962	3499.021
600.090	3556.371
600.218	3557.918
600.346	3530.392
600.474	3534.299
600.602	3512.784
600.730	3488.289
600.858	3494.093
600.987	3562.392
601.115	3571.361
601.243	3616.124
601.371	3632.814
601.499	3613.175
601.627	3581.979
601.755	3559.856
601.883	3637.753
602.012	3535.536
602.140	3662.454
602.268	3619.577
602.396	3746.557
602.524	3601.206
602.652	3689.134
602.780	3663.247
602.908	3674.711
603.037	3727.866
603.165	3716.629
603.293	3695.969
603.421	3726.691
603.549	3725.433
603.677	3759.351
603.805	3733.010
603.933	3752.299
604.062	3783.505
604.190	3823.979
604.318	3815.113
604.446	3799.845
604.574	3859.196
604.702	3910.423
604.830	3842.258
604.958	3859.144
605.087	3896.928
605.215	3922.062
605.343	3987.619
605.471	3923.361
605.599	3926.278
605.727	4004.990
605.855	3948.021
605.983	3977.278
606.112	4000.082
606.240	3991.021
606.368	4002.619
606.496	3985.196
606.624	4054.753
606.752	4001.515
606.880	4055.433
607.008	3993.062
607.137	3986.103
607.265	4090.969
607.393	4012.010
607.521	4089.052
607.649	4027.010
607.777	4060.340
607.905	4081.371
608.033	4046.041
608.162	4091.443
608.290	4073.082
608.418	4167.711
608.546	4105.124
608.674	4143.052
608.802	4078.299
608.930	4078.175
609.058	4041.330
609.187	4038.206
609.315	4084.990
609.443	4073.907
609.571	4205.155
609.699	4064.433
609.827	4146.835
609.955	4116.474
610.083	4075.918
610.212	4092.660
610.340	4099.392
610.468	4089.505
610.596	4123.392
610.724	4078.856
610.852	4144.381
610.980	4108.103
611.108	4092.608
611.237	4091.577
611.365	4114.969
611.493	4091.567
611.621	4098.866
611.749	4147.680
611.877	4196.320
612.005	4154.577
612.133	4201.701
612.262	4141.402
612.390	4231.711
612.518	4239.495
612.646	4166.577
612.774	4235.433
612.902	4231.588
613.030	4197.216
613.158	4241.103
613.287	4317.598
613.415	4195.660
613.543	4272.093
613.671	4275.485
613.799	4290.247
613.927	4319.691
614.055	4299.124
614.183	4302.557
614.312	4270.567
614.440	4427.000
614.568	4356.021
614.696	4369.093
614.824	4343.629
614.952	4387.928
615.080	4363.134
615.208	4409.742
615.337	4489.701
615.465	4381.402
615.593	4467.784
615.721	4426.485
615.849	4498.907
615.977	4450.206
616.105	4478.588
616.233	4468.629
616.362	4503.794
616.490	4492.660
616.618	4517.464
616.746	4601.505
616.874	4556.546
617.002	4544.814
617.130	4535.753
617.258	4502.732
617.387	4545.361
617.515	4563.052
617.643	4559.907
617.771	4644.629
617.899	4558.309
618.027	4637.392
618.155	4625.247
618.283	4613.588
618.412	4618.062
618.540	4651.031
618.668	4633.351
618.796	4634.454
618.924	4576.495
619.052	4686.423
619.180	4634.629
619.308	4659.381
619.437	4678.464
619.565	4690.320
619.693	4669.134
619.821	4716.361
619.949	4658.763
620.077	4688.732
620.205	4728.629
620.333	4744.959
620.462	4679.701
620.590	4717.876
620.718	4733.237
620.846	4735.515
620.974	4730.794
621.102	4769.010
621.230	4741.103
621.358	4898.186
621.487	4729.361
621.615	4783.536
621.743	4725.670
621.871	4815.711
621.999	4717.928
622.127	4764.784
622.255	4770.041
622.383	4746.062
622.512	4741.557
622.640	4752.814
622.768	4790.835
622.896	4864.351
623.024	4829.392
623.152	4768.361
623.280	4837.557
623.408	4772.588
623.537	4785.536
623.665	4773.402
623.793	4837.289
623.921	4833.990
624.049	4818.392
624.177	4838.062
624.305	4808.948
624.433	4836.629
624.562	4837.268
624.690	4973.144
624.818	4783.423
624.946	4891.732
625.074	4834.402
625.202	4809.237
625.330	4865.639
625.458	4936.918
625.587	4850.330
625.715	4914.433
625.843	4871.392
625.971	4877.196
626.099	4888.392
626.227	4918.567
626.355	4853.753
626.483	4957.557
626.612	4872.598
626.740	4892.227
626.868	4887.134
626.996	4960.289
627.124	4908.010
627.252	4884.361
627.380	4904.711
627.508	4916.144
627.637	4972.031
627.765	4928.041
627.893	4973.784
628.021	5052.010
628.149	4923.381
628.277	5062.433
628.405	4985.526
628.533	5001.742
628.662	5041.330
628.790	5099.608
628.918	4985.485
629.046	5134.825
629.174	5005.258
629.302	5073.660
629.430	4991.237
629.558	5064.052
629.687	5029.866
629.815	5094.598
629.943	5169.773
630.071	5107.155
630.199	5070.536
630.327	5095.990
630.455	5122.722
630.583	5102.670
630.712	5133.062
630.840	5165.289
630.968	5165.639
631.096	5134.732
631.224	5158.361
631.352	5295.041
631.480	5170.392
631.608	5357.856
631.737	5179.381
631.865	5335.340
631.993	5294.763
632.121	5369.052
632.249	5247.247
632.377	5242.021
632.505	5238.278
632.633	5253.845
632.762	5224.031
632.890	5256.814
633.018	5239.639
633.146	5238.979
633.274	5222.206
633.402	5336.227
633.530	5263.278
633.658	5265.711
633.787	5245.103
633.915	5259.237
634.043	5280.701
634.171	5293.526
634.299	5252.196
634.427	5249.062
634.555	5511.670
634.683	5275.557
634.812	5295.186
634.940	5245.485
635.068	5286.567
635.196	5260.670
635.324	5252.186
635.452	5267.722
635.580	5374.392
635.708	5220.763
635.837	5269.680
635.965	5288.577
636.093	5252.412
636.221	5241.186
636.349	5176.443
636.477	5216.959
636.605	5248.423
636.733	5219.320
636.862	5188.155
636.990	5258.732
637.118	5240.237
637.246	5199.773
637.374	5326.742
637.502	5184.351
637.630	5189.845
637.758	5208.990
637.887	5144.598
638.015	5289.299
638.143	5190.258
638.271	5154.711
638.399	5222.155
638.527	5140.216
638.655	5168.567
638.783	5180.320
638.912	5249.732
639.040	5194.485
639.168	5154.536
639.296	5146.412
639.424	5216.979
639.552	5155.155
639.680	5212.938
639.808	5175.134
639.937	5124.959
640.065	5127.124
640.193	5120.474
640.321	5249.701
640.449	5202.320
640.577	5131.876
640.705	5158.062
640.833	5158.258
640.962	5248.144
641.090	5111.639
641.218	5156.216
641.346	5235.814
641.474	5152.144
641.602	5165.979
641.730	5141.928
641.858	5126.948
641.987	5115.082
642.115	5328.340
642.243	5195.433
642.371	5339.825
642.499	5206.557
642.627	5276.062
642.755	5172.897
642.883	5185.144
643.012	5214.443
643.140	5257.186
643.268	5252.402
643.396	5186.144
643.524	5241.454
643.652	5324.371
643.780	5198.371
643.908	5190.299
644.037	5305.474
644.165	5289.216
644.293	5385.763
644.421	5189.979
644.549	5296.701
644.677	5300.227
644.805	5236.186
644.933	5221.175
645.062	5239.381
645.190	5390.155
645.318	5300.557
645.446	5187.515
645.574	5162.309
645.702	5292.990
645.830	5247.649
645.958	5210.320
646.087	5205.423
646.215	5200.454
646.343	5196.144
646.471	5376.691
646.599	5187.227
646.727	5177.918
646.855	5200.711
646.983	5163.433
647.112	5260.784
647.240	5193.351
647.368	5252.505
647.496	5163.835
647.624	5186.577
647.752	5163.000
647.880	5117.392
648.008	5181.010
648.137	5182.546
648.265	5114.433
648.393	5214.876
648.521	5132.515
648.649	5262.093
648.777	5206.134
648.905	5157.753
649.033	5212.062
649.162	5101.175
649.290	5066.680
649.418	5087.691
649.546	5254.938
649.674	5072.000
649.802	5057.392
649.930	5024.443
650.058	5010.309
650.187	5059.474
650.315	5017.536
650.443	5028.557
650.571	5037.845
650.699	4996.299
650.827	4959.907
650.955	4978.216
651.083	5071.351
651.212	4916.773
651.340	5010.258
651.468	4944.835
651.596	5013.412
651.724	5014.041
651.852	4942.289
651.980	4938.134
652.108	4920.412
652.237	4909.093
652.365	4890.784
652.493	4890.557
652.621	4855.464
652.749	4866.742
652.877	4856.299
653.005	4917.773
653.133	4832.918
653.262	4811.948
653.390	4833.814
653.518	4970.186
653.646	4813.412
653.774	4815.691
653.902	4856.753
654.030	4810.021
654.158	4767.670
654.287	4823.825
654.415	4784.660
654.543	4769.588
654.671	4739.155
654.799	4747.052
654.927	4733.227
655.055	4704.825
655.183	4705.165
655.312	4707.526
655.440	4679.969
655.568	4657.526
655.696	4741.330
655.824	4659.392
655.952	4640.825
656.080	4632.216
656.208	4646.021
656.337	4662.206
656.465	4796.351
656.593	4634.722
656.721	4693.784
656.849	4736.175
656.977	4535.918
657.105	4609.165
657.233	4592.794
657.362	4628.557
657.490	4570.268
657.618	4581.784
657.746	4580.835
657.874	4537.918
658.002	4555.691
658.130	4510.340
658.258	4554.237
658.387	4470.093
658.515	4491.835
658.643	4484.474
658.771	4524.052
658.899	4433.577
659.027	4454.289
659.155	4457.021
659.283	4427.237
659.412	4479.948
659.540	4452.557
659.668	4473.732
659.796	4504.206
659.924	4450.753
660.052	4485.227
660.180	4377.381
660.308	4451.289
660.437	4413.680
660.565	4402.402
660.693	4332.680
660.821	4545.907
660.949	4333.567
661.077	4392.639
661.205	4493.794
661.333	4325.155
661.462	4296.495
661.590	4443.814
661.718	4330.443
661.846	4340.103
661.974	4326.619
662.102	4312.691
662.230	4340.928
662.358	4238.835
662.487	4305.402
662.615	4280.588
662.743	4324.763
662.871	4252.021
662.999	4229.928
663.127	4248.041
663.255	4210.649
663.383	4363.165
663.512	4172.969
663.640	4225.660
663.768	4240.443
663.896	4191.639
664.024	4211.948
664.152	4156.258
664.280	4252.320
664.408	4168.546
664.537	4142.918
664.665	4160.557
664.793	4169.938
664.921	4133.876
665.049	4215.691
665.177	4123.515
665.305	4146.619
665.433	4147.814
665.562	4252.948
665.690	4132.546
665.818	4255.320
665.946	4061.598
666.074	4053.856
666.202	4072.711
666.330	4025.021
666.458	4142.763
666.587	4015.753
666.715	4044.186
666.843	4025.959
666.971	4057.979
667.099	4074.722
667.227	4085.175
667.355	4086.753
667.483	4007.928
667.612	4032.237
667.740	4046.134
667.868	3992.474
667.996	3962.268
668.124	4012.464
668.252	4078.320
668.380	3969.732
668.508	3969.000
668.637	3982.515
668.765	4026.361
668.893	4000.722
669.021	3903.196
669.149	3985.722
669.277	3918.557
669.405	3993.258
669.533	3965.206
669.662	3892.216
669.790	3901.082
669.918	3934.722
670.046	4023.598
670.174	3851.701
670.302	3829.340
670.430	3836.330
670.558	3881.258
670.687	3997.093
670.815	3828.381
670.943	3876.670
671.071	3782.711
671.199	3765.402
671.327	3786.165
671.455	3780.278
671.583	3761.825
671.712	3724.763
671.840	3776.485
671.968	3896.155
672.096	3873.423
672.224	3687.639
672.352	3664.887
672.480	3643.000
672.608	3709.526
672.737	3647.155
672.865	3617.062
672.993	3650.247
673.121	3619.691
673.249	3617.773
673.377	3569.814
673.505	3567.505
673.633	3619.144
673.762	3529.670
673.890	3539.454
674.018	3562.825
674.146	3505.701
674.274	3517.670
674.402	3570.186
674.530	3495.784
674.658	3486.979
674.787	3482.598
674.915	3629.711
675.043	3464.845
675.171	3494.010
675.299	3424.258
675.427	3422.588
675.555	3405.464
675.683	3425.649
675.812	3391.268
675.940	3366.144
676.068	3355.474
676.196	3375.474
676.324	3316.907
676.452	3297.959
676.580	3279.155
676.708	3304.247
676.837	3301.567
676.965	3411.536
677.093	3440.371
677.221	3316.742
677.349	3231.113
677.477	3319.206
677.605	3234.567
677.733	3233.309
677.862	3237.495
677.990	3234.072
678.118	3275.340
678.246	3185.536
678.374	3265.546
678.502	3208.876
678.630	3154.856
678.758	3179.680
678.887	3321.289
679.015	3099.021
679.143	3115.835
679.271	3092.320
679.399	3105.526
679.527	3154.825
679.655	3177.814
679.783	3054.381
679.912	3054.309
680.040	3252.155
680.168	3053.392
680.296	3069.021
680.424	3056.278
680.552	3039.866
680.680	2996.113
680.808	2982.969
680.937	2980.649
681.065	3058.629
681.193	2996.814
681.321	2966.515
681.449	2999.340
681.577	2971.330
681.705	2907.979
681.833	2969.155
681.962	2951.134
682.090	2910.763
682.218	2945.990
682.346	2937.979
682.474	2893.536
682.602	2885.557
682.730	2940.557
682.858	2857.856
682.987	2871.186
683.115	2908.330
683.243	2881.557
683.371	2878.856
683.499	2827.979
683.627	2889.454
683.755	2862.052
683.883	2808.784
684.012	2871.526
684.140	2814.732
684.268	2811.351
684.396	2880.392
684.524	2802.722
684.652	2829.278
684.780	2811.722
684.908	2833.835
685.037	2809.897
685.165	2819.804
685.293	2857.247
685.421	2820.515
685.549	2810.763
685.677	2773.536
685.805	2824.515
685.933	2792.732
686.062	2799.536
686.190	2765.443
686.318	2779.247
686.446	2750.866
686.574	2722.423
686.702	2784.649
686.830	2751.876
686.958	2798.948
687.087	2723.299
687.215	2733.072
687.343	2752.804
687.471	2834.134
687.599	2688.289
687.727	2679.691
687.855	2688.433
687.983	2664.629
688.112	2699.845
688.240	2673.680
688.368	2684.959
688.496	2670.464
688.624	2656.567
688.752	2742.361
688.880	2660.701
689.008	2655.742
689.137	2647.186
689.265	2636.412
689.393	2630.361
689.521	2625.526
689.649	2663.907
689.777	2623.804
689.905	2633.082
690.033	2600.938
690.162	2591.495
690.290	2590.320
690.418	2586.670
690.546	2590.763
690.674	2581.443
690.802	2571.784
690.930	2564.134
691.058	2555.722
691.187	2532.897
691.315	2526.814
691.443	2549.443
691.571	2536.588
691.699	2519.959
691.827	2522.505
691.955	2502.443
692.083	2501.876
692.212	2495.639
692.340	2481.412
692.468	2463.072
692.596	2482.639
692.724	2471.361
692.852	2453.856
692.980	2469.093
693.108	2446.021
693.237	2442.381
693.365	2425.670
693.493	2408.928
693.621	2410.330
693.749	2396.866
693.877	2398.134
694.005	2385.763
694.133	2377.773
694.262	2365.268
694.390	2369.515
694.518	2368.536
694.646	2349.691
694.774	2339.567
694.902	2338.052
695.030	2326.649
695.158	2340.990
695.287	2303.536
695.415	2320.000
695.543	2291.701
695.671	2274.505
695.799	2301.567
695.927	2270.691
696.055	2274.753
696.183	2267.464
696.312	2283.814
696.440	2256.175
696.568	2248.330
696.696	2236.361
696.824	2246.485
696.952	2231.887
697.080	2229.330
697.208	2210.619
697.337	2223.454
697.465	2212.062
697.593	2214.742
697.721	2202.938
697.849	2192.144
697.977	2179.000
698.105	2164.124
698.233	2176.856
698.362	2152.206
698.490	2173.474
698.618	2151.639
698.746	2125.247
698.874	2121.742
699.002	2125.010
699.130	2115.742
699.258	2129.814
699.387	2108.546
699.515	2100.124
699.643	2104.155
699.771	2087.701
699.899	2075.206
700.027	2066.784
700.155	2077.959
700.283	2056.454
700.412	2049.392
700.540	2064.196
700.668	2055.784
700.796	2029.144
700.924	2021.237
701.052	1996.866
701.180	2013.845
701.308	1998.320
701.437	1997.629
701.565	2000.639
701.693	1964.701
701.821	1980.330
701.949	1975.608
702.077	1975.887
702.205	1953.258
702.333	1958.402
702.462	1929.784
702.590	1949.144
702.718	1933.567
702.846	1914.866
702.974	1903.330
703.102	1913.969
703.230	1908.237
703.358	1876.464
703.487	1876.433
703.615	1877.412
703.743	1868.814
703.871	1863.144
703.999	1846.629
704.127	1825.897
704.255	1852.340
704.383	1822.845
704.512	1828.722
704.640	1792.948
704.768	1795.258
704.896	1791.124
705.024	1789.753
705.152	1775.485
705.280	1802.000
705.408	1768.753
705.537	1762.165
705.665	1760.897
705.793	1739.433
705.921	1755.515
706.049	1730.598
706.177	1716.289
706.305	1729.031
706.433	1719.041
706.562	1723.237
706.690	1708.320
706.818	1703.546
706.946	1691.907
707.074	1698.680
707.202	1684.093
707.330	1670.412
707.458	1686.835
707.587	1667.227
707.715	1674.649
707.843	1647.948
707.971	1652.979
708.099	1627.124
708.227	1637.629
708.355	1645.588
708.483	1632.979
708.612	1635.907
708.740	1621.876
708.868	1613.299
708.996	1614.113
709.124	1597.082
709.252	1607.041
709.380	1615.206
709.508	1577.351
709.637	1590.866
709.765	1577.474
709.893	1574.443
710.021	1584.856
710.149	1583.340
710.277	1567.918
710.405	1558.773
710.533	1558.216
710.662	1539.876
710.790	1555.794
710.918	1531.825
711.046	1545.990
711.174	1528.309
711.302	1534.907
711.430	1525.371
711.558	1536.649
711.687	1517.753
711.815	1504.856
711.943	1519.588
712.071	1512.948
712.199	1507.722
712.327	1507.845
712.455	1500.577
712.583	1505.144
712.712	1494.443
712.840	1490.082
712.968	1477.392
713.096	1476.825
713.224	1478.010
713.352	1468.165
713.480	1469.814
713.608	1462.701
713.737	1464.165
713.865	1453.175
713.993	1474.948
714.121	1465.794
714.249	1448.536
714.377	1463.309
714.505	1456.701
714.633	1452.680
714.762	1445.052
714.890	1435.227
715.018	1437.113
715.146	1444.165
715.274	1417.134
715.402	1424.299
715.530	1414.134
715.658	1409.402
715.787	1404.381
715.915	1409.670
716.043	1415.402
716.171	1396.062
716.299	1390.670
716.427	1401.763
716.555	1393.536
716.683	1388.608
716.812	1383.918
716.940	1384.969
717.068	1377.299
717.196	1377.165
717.324	1368.825
717.452	1363.515
717.580	1366.536
717.708	1356.814
717.837	1359.670
717.965	1350.433
718.093	1355.804
718.221	1338.897
718.349	1346.134
718.477	1345.928
718.605	1327.072
718.733	1334.907
718.862	1321.804
718.990	1322.113
719.118	1323.938
719.246	1314.959
719.374	1309.794
719.502	1309.866
719.630	1317.052
719.758	1306.660
719.887	1296.876
720.015	1285.515
720.143	1283.485
720.271	1279.742
720.399	1284.619
720.527	1277.897
720.655	1267.041
720.783	1267.247
720.912	1260.093
721.040	1257.289
721.168	1259.701
721.296	1255.794
721.424	1240.423
721.552	1255.052
721.680	1236.918
721.808	1241.412
721.937	1239.124
722.065	1233.711
722.193	1228.062
722.321	1229.454
722.449	1229.237
722.577	1220.134
722.705	1207.536
722.833	1219.124
722.962	1214.856
723.090	1216.979
723.218	1199.608
723.346	1200.629
723.474	1204.433
723.602	1185.041
723.730	1193.381
723.858	1183.990
723.987	1188.835
724.115	1186.732
724.243	1190.309
724.371	1167.196
724.499	1181.412
724.627	1162.938
724.755	1162.474
724.883	1160.629
725.012	1161.052
725.140	1153.113
725.268	1146.866
725.396	1130.722
725.524	1145.186
725.652	1123.309
725.780	1137.361
725.908	1131.619
726.037	1126.330
726.165	1123.082
726.293	1113.938
726.421	1120.206
726.549	1115.557
726.677	1109.010
726.805	1108.165
726.933	1099.959
727.062	1099.155
727.190	1104.845
727.318	1096.021
727.446	1097.639
727.574	1100.804
727.702	1084.041
727.830	1088.309
727.958	1081.134
728.087	1090.371
728.215	1072.567
728.343	1075.381
728.471	1067.680
728.599	1072.763
728.727	1067.464
728.855	1061.990
728.983	1067.258
729.112	1058.660
729.240	1049.990
729.368	1052.093
729.496	1038.887
729.624	1042.289
729.752	1050.299
729.880	1036.598
730.008	1043.918
730.137	1042.299
730.265	1043.979
730.393	1026.000
730.521	1032.515
730.649	1035.608
730.777	1037.433
730.905	1020.175
731.033	1024.247
731.162	1015.598
731.290	1029.299
731.418	1026.433
731.546	1016.268
731.674	1010.918
731.802	1011.041
731.930	1013.433
732.058	1000.103
732.187	1003.206
732.315	997.691
732.443	1005.660
732.571	1007.247
732.699	1000.103
732.827	996.041
732.955	999.402
733.083	996.969
733.212	1003.433
733.340	991.021
733.468	997.711
733.596	986.691
733.724	984.072
733.852	985.000
733.980	970.247
734.108	983.918
734.237	987.526
734.365	987.825
734.493	964.619
734.621	976.670
734.749	979.206
734.877	968.567
735.005	964.072
735.133	970.825
735.262	974.598
