whiteh_at_750.00nm_cut_at_1060.50Y_01.dat
19.06.2023
11:25:20
cut middle at Y: 1060.50
top cursor: 1109 down cursor: 1012 mean of: 97 lines , 2560 datapoints
wavelength(nm)	intensity[arb. units]
585.996	720.381
586.124	699.660
586.252	696.804
586.380	700.670
586.508	703.062
586.637	698.082
586.765	704.598
586.893	695.237
587.021	712.711
587.149	706.134
587.277	708.598
587.405	708.567
587.533	706.680
587.662	715.577
587.790	716.186
587.918	711.526
588.046	715.835
588.174	715.866
588.302	722.247
588.430	715.237
588.558	717.320
588.687	720.155
588.815	728.093
588.943	731.670
589.071	718.691
589.199	724.361
589.327	727.402
589.455	723.021
589.583	720.196
589.712	724.258
589.840	729.206
589.968	732.258
590.096	729.423
590.224	738.196
590.352	729.835
590.480	727.330
590.608	736.485
590.737	733.804
590.865	734.144
590.993	740.433
591.121	731.144
591.249	736.526
591.377	739.031
591.505	737.144
591.633	735.330
591.762	742.433
591.890	743.742
592.018	742.629
592.146	731.402
592.274	746.206
592.402	739.423
592.530	735.175
592.658	745.979
592.787	738.072
592.915	744.330
593.043	741.629
593.171	742.072
593.299	751.928
593.427	744.608
593.555	745.701
593.683	738.464
593.812	743.113
593.940	751.155
594.068	744.505
594.196	748.155
594.324	743.485
594.452	758.144
594.580	758.371
594.708	750.134
594.837	758.072
594.965	753.979
595.093	751.351
595.221	754.948
595.349	760.918
595.477	759.784
595.605	752.351
595.733	767.680
595.862	763.433
595.990	756.598
596.118	757.289
596.246	767.052
596.374	754.876
596.502	765.113
596.630	762.938
596.758	766.278
596.887	770.763
597.015	775.124
597.143	762.577
597.271	761.598
597.399	769.031
597.527	772.918
597.655	778.216
597.783	775.052
597.912	765.701
598.040	774.278
598.168	775.227
598.296	769.938
598.424	767.897
598.552	774.361
598.680	767.340
598.808	770.062
598.937	786.361
599.065	776.340
599.193	775.165
599.321	767.680
599.449	769.897
599.577	772.557
599.705	773.278
599.833	774.505
599.962	769.691
600.090	774.722
600.218	770.711
600.346	774.990
600.474	770.103
600.602	775.876
600.730	768.227
600.858	773.206
600.987	776.289
601.115	776.866
601.243	775.577
601.371	772.742
601.499	777.938
601.627	784.711
601.755	779.649
601.883	777.309
602.012	789.763
602.140	784.443
602.268	785.031
602.396	785.258
602.524	791.196
602.652	788.381
602.780	791.454
602.908	786.515
603.037	792.082
603.165	794.938
603.293	802.629
603.421	797.186
603.549	798.567
603.677	804.495
603.805	798.835
603.933	808.165
604.062	797.691
604.190	811.454
604.318	810.794
604.446	808.887
604.574	811.691
604.702	807.278
604.830	815.856
604.958	818.701
605.087	818.598
605.215	821.722
605.343	823.412
605.471	829.577
605.599	820.505
605.727	827.804
605.855	825.577
605.983	821.845
606.112	835.598
606.240	837.392
606.368	832.753
606.496	839.495
606.624	828.072
606.752	829.309
606.880	831.557
607.008	833.474
607.137	838.649
607.265	831.258
607.393	841.969
607.521	835.237
607.649	831.876
607.777	837.794
607.905	831.814
608.033	842.495
608.162	837.423
608.290	832.711
608.418	837.000
608.546	832.072
608.674	839.258
608.802	828.814
608.930	840.732
609.058	838.784
609.187	838.918
609.315	835.969
609.443	833.887
609.571	838.773
609.699	831.361
609.827	839.969
609.955	836.247
610.083	822.526
610.212	833.289
610.340	828.113
610.468	830.670
610.596	833.206
610.724	827.680
610.852	829.402
610.980	839.505
611.108	835.320
611.237	832.423
611.365	834.732
611.493	835.495
611.621	841.845
611.749	830.732
611.877	835.619
612.005	836.814
612.133	837.856
612.262	839.536
612.390	843.639
612.518	833.392
612.646	837.887
612.774	843.103
612.902	844.485
613.030	841.804
613.158	848.474
613.287	846.701
613.415	850.330
613.543	847.619
613.671	852.907
613.799	850.278
613.927	852.433
614.055	849.948
614.183	850.474
614.312	848.072
614.440	849.299
614.568	853.567
614.696	868.031
614.824	863.134
614.952	851.165
615.080	861.247
615.208	866.062
615.337	873.268
615.465	852.722
615.593	858.454
615.721	865.216
615.849	861.485
615.977	864.134
616.105	858.557
616.233	859.639
616.362	869.021
616.490	857.784
616.618	877.175
616.746	868.082
616.874	871.928
617.002	874.000
617.130	869.186
617.258	855.268
617.387	863.814
617.515	868.505
617.643	871.330
617.771	870.495
617.899	865.299
618.027	863.722
618.155	870.526
618.283	870.515
618.412	867.423
618.540	871.835
618.668	872.485
618.796	864.567
618.924	875.062
619.052	866.052
619.180	873.330
619.308	876.412
619.437	861.753
619.565	881.000
619.693	863.351
619.821	870.216
619.949	872.856
620.077	865.680
620.205	871.113
620.333	876.031
620.462	883.062
620.590	872.701
620.718	873.649
620.846	871.670
620.974	883.856
621.102	867.680
621.230	878.969
621.358	874.361
621.487	875.948
621.615	874.433
621.743	875.794
621.871	879.742
621.999	874.897
622.127	877.474
622.255	872.361
622.383	878.608
622.512	876.134
622.640	879.918
622.768	870.464
622.896	871.928
623.024	866.103
623.152	879.794
623.280	877.979
623.408	882.144
623.537	878.856
623.665	877.876
623.793	878.495
623.921	874.144
624.049	873.278
624.177	875.155
624.305	873.093
624.433	880.825
624.562	867.289
624.690	869.928
624.818	867.165
624.946	871.474
625.074	869.784
625.202	879.753
625.330	871.361
625.458	870.196
625.587	877.887
625.715	876.258
625.843	879.515
625.971	863.619
626.099	869.876
626.227	873.041
626.355	867.495
626.483	878.062
626.612	869.990
626.740	864.918
626.868	871.330
626.996	864.082
627.124	868.680
627.252	856.557
627.380	863.340
627.508	862.433
627.637	860.948
627.765	865.155
627.893	869.928
628.021	856.072
628.149	859.969
628.277	868.113
628.405	871.680
628.533	860.320
628.662	863.443
628.790	864.258
628.918	866.804
629.046	863.536
629.174	860.196
629.302	862.856
629.430	865.124
629.558	860.072
629.687	866.216
629.815	867.784
629.943	864.866
630.071	865.423
630.199	869.103
630.327	857.351
630.455	863.278
630.583	866.990
630.712	862.392
630.840	864.454
630.968	869.031
631.096	874.371
631.224	862.165
631.352	866.577
631.480	862.320
631.608	871.814
631.737	863.309
631.865	870.278
631.993	861.639
632.121	862.691
632.249	862.598
632.377	865.268
632.505	858.742
632.633	857.216
632.762	862.608
632.890	864.402
633.018	856.237
633.146	860.309
633.274	849.536
633.402	854.052
633.530	850.598
633.658	863.608
633.787	852.052
633.915	853.495
634.043	852.577
634.171	844.381
634.299	858.835
634.427	852.093
634.555	853.041
634.683	848.567
634.812	845.082
634.940	849.454
635.068	847.041
635.196	853.113
635.324	849.649
635.452	845.093
635.580	845.639
635.708	834.062
635.837	837.010
635.965	846.196
636.093	837.990
636.221	833.340
636.349	828.423
636.477	829.423
636.605	835.052
636.733	832.237
636.862	827.155
636.990	824.608
637.118	823.052
637.246	823.763
637.374	822.237
637.502	812.722
637.630	820.701
637.758	817.897
637.887	820.474
638.015	814.619
638.143	815.845
638.271	813.485
638.399	812.155
638.527	804.794
638.655	810.454
638.783	811.515
638.912	805.763
639.040	801.845
639.168	805.505
639.296	806.474
639.424	807.649
639.552	797.454
639.680	792.371
639.808	796.990
639.937	790.402
640.065	803.753
640.193	802.753
640.321	789.495
640.449	792.804
640.577	795.289
640.705	789.567
640.833	789.979
640.962	798.464
641.090	785.608
641.218	793.753
641.346	779.577
641.474	780.897
641.602	783.371
641.730	795.289
641.858	784.598
641.987	792.680
642.115	790.567
642.243	779.351
642.371	789.021
642.499	781.216
642.627	785.567
642.755	783.515
642.883	779.897
643.012	775.309
643.140	783.247
643.268	781.361
643.396	779.227
643.524	790.784
643.652	788.340
643.780	776.000
643.908	776.464
644.037	779.392
644.165	776.639
644.293	779.423
644.421	776.031
644.549	782.103
644.677	783.103
644.805	771.144
644.933	770.412
645.062	772.588
645.190	768.577
645.318	769.330
645.446	773.876
645.574	771.856
645.702	779.381
645.830	774.577
645.958	776.856
646.087	769.175
646.215	772.887
646.343	775.990
646.471	770.113
646.599	766.701
646.727	768.557
646.855	761.289
646.983	772.093
647.112	764.753
647.240	765.320
647.368	758.021
647.496	768.557
647.624	761.845
647.752	753.505
647.880	756.577
648.008	759.639
648.137	754.072
648.265	750.742
648.393	747.268
648.521	754.392
648.649	754.175
648.777	744.309
648.905	750.536
649.033	737.866
649.162	744.124
649.290	743.464
649.418	732.773
649.546	738.423
649.674	745.330
649.802	739.711
649.930	742.938
650.058	732.845
650.187	738.742
650.315	741.052
650.443	725.433
650.571	730.062
650.699	723.062
650.827	735.619
650.955	729.825
651.083	729.907
651.212	728.423
651.340	721.680
651.468	713.948
651.596	722.000
651.724	725.814
651.852	709.701
651.980	722.804
652.108	723.773
652.237	718.773
652.365	712.588
652.493	720.794
652.621	704.948
652.749	715.639
652.877	707.588
653.005	707.454
653.133	713.979
653.262	709.464
653.390	706.557
653.518	704.206
653.646	708.742
653.774	703.392
653.902	706.608
654.030	702.186
654.158	696.670
654.287	687.433
654.415	691.134
654.543	695.938
654.671	690.680
654.799	687.701
654.927	695.103
655.055	694.113
655.183	679.814
655.312	680.175
655.440	686.948
655.568	682.495
655.696	684.711
655.824	684.227
655.952	681.990
656.080	676.649
656.208	681.711
656.337	675.443
656.465	681.959
656.593	675.794
656.721	668.732
656.849	669.711
656.977	669.515
657.105	665.526
657.233	667.258
657.362	663.938
657.490	664.392
657.618	658.412
657.746	661.268
657.874	654.278
658.002	653.907
658.130	654.227
658.258	663.680
658.387	655.680
658.515	651.876
658.643	643.938
658.771	645.237
658.899	649.464
659.027	648.474
659.155	650.680
659.283	640.557
659.412	642.928
659.540	641.629
659.668	646.990
659.796	642.639
659.924	643.072
660.052	635.990
660.180	637.773
660.308	643.320
660.437	634.227
660.565	633.619
660.693	639.660
660.821	635.381
660.949	637.402
661.077	627.247
661.205	632.165
661.333	626.309
661.462	630.990
661.590	634.990
661.718	623.588
661.846	624.485
661.974	622.619
662.102	621.660
662.230	622.237
662.358	623.856
662.487	617.474
662.615	617.454
662.743	611.567
662.871	620.433
662.999	618.938
663.127	616.062
663.255	619.979
663.383	616.124
663.512	610.969
663.640	615.608
663.768	612.412
663.896	608.526
664.024	608.144
664.152	605.454
664.280	606.000
664.408	608.412
664.537	611.041
664.665	603.454
664.793	604.000
664.921	601.577
665.049	602.794
665.177	604.598
665.305	598.206
665.433	601.124
665.562	601.134
665.690	607.474
665.818	594.546
665.946	595.928
666.074	594.278
666.202	591.948
666.330	598.546
666.458	595.763
666.587	586.742
666.715	594.804
666.843	593.526
666.971	591.557
667.099	590.938
667.227	591.206
667.355	586.845
667.483	587.237
667.612	579.928
667.740	580.175
667.868	583.412
667.996	578.907
668.124	582.773
668.252	581.691
668.380	571.041
668.508	582.072
668.637	571.825
668.765	571.546
668.893	572.784
669.021	578.515
669.149	567.041
669.277	571.454
669.405	571.196
669.533	569.608
669.662	567.289
669.790	560.763
669.918	565.237
670.046	562.278
670.174	554.722
670.302	561.433
670.430	555.948
670.558	554.464
670.687	556.196
670.815	551.619
670.943	555.381
671.071	550.186
671.199	554.845
671.327	549.237
671.455	549.361
671.583	548.041
671.712	542.010
671.840	546.979
671.968	543.010
672.096	539.711
672.224	541.072
672.352	542.289
672.480	541.773
672.608	537.897
672.737	536.464
672.865	532.247
672.993	537.649
673.121	532.031
673.249	525.649
673.377	527.093
673.505	527.969
673.633	516.588
673.762	516.113
673.890	521.186
674.018	527.165
674.146	516.660
674.274	521.052
674.402	513.866
674.530	513.938
674.658	519.423
674.787	509.969
674.915	517.526
675.043	510.825
675.171	504.289
675.299	505.753
675.427	508.990
675.555	505.010
675.683	502.237
675.812	498.557
675.940	500.515
676.068	505.856
676.196	494.711
676.324	499.526
676.452	495.423
676.580	496.990
676.708	490.113
676.837	493.196
676.965	489.856
677.093	491.907
677.221	489.330
677.349	483.031
677.477	489.722
677.605	482.536
677.733	482.433
677.862	480.082
677.990	478.732
678.118	485.464
678.246	469.351
678.374	474.155
678.502	479.237
678.630	465.598
678.758	473.247
678.887	473.557
679.015	476.546
679.143	465.928
679.271	465.608
679.399	465.062
679.527	464.309
679.655	462.021
679.783	464.485
679.912	456.082
680.040	461.371
680.168	460.557
680.296	456.474
680.424	460.392
680.552	454.000
680.680	457.381
680.808	457.412
680.937	453.433
681.065	455.454
681.193	449.598
681.321	454.268
681.449	449.722
681.577	443.237
681.705	442.804
681.833	443.134
681.962	450.938
682.090	445.454
682.218	440.918
682.346	442.979
682.474	436.412
682.602	447.062
682.730	442.845
682.858	438.660
682.987	438.619
683.115	432.928
683.243	436.247
683.371	434.278
683.499	428.381
683.627	437.546
683.755	428.175
683.883	433.856
684.012	429.278
684.140	427.876
684.268	420.835
684.396	424.165
684.524	427.340
684.652	425.928
684.780	430.773
684.908	422.732
685.037	422.299
685.165	421.701
685.293	422.330
685.421	419.381
685.549	424.979
685.677	424.474
685.805	414.072
685.933	421.619
686.062	413.278
686.190	418.247
686.318	419.711
686.446	416.546
686.574	415.588
686.702	415.237
686.830	415.216
686.958	415.598
687.087	415.948
687.215	410.000
687.343	411.031
687.471	409.010
687.599	414.876
687.727	410.062
687.855	408.268
687.983	417.052
688.112	405.794
688.240	411.660
688.368	405.732
688.496	406.660
688.624	407.629
688.752	404.546
688.880	405.340
689.008	405.010
689.137	408.526
689.265	398.691
689.393	397.691
689.521	400.454
689.649	399.876
689.777	398.814
689.905	397.825
690.033	396.227
690.162	394.969
690.290	392.526
690.418	387.351
690.546	392.814
690.674	392.165
690.802	390.876
690.930	393.227
691.058	388.381
691.187	383.010
691.315	387.660
691.443	386.351
691.571	384.454
691.699	379.959
691.827	380.515
691.955	381.639
692.083	381.289
692.212	379.330
692.340	379.186
692.468	374.258
692.596	376.010
692.724	372.969
692.852	370.062
692.980	373.031
693.108	372.866
693.237	371.216
693.365	368.753
693.493	368.299
693.621	369.155
693.749	366.577
693.877	362.732
694.005	361.918
694.133	365.041
694.262	361.938
694.390	359.485
694.518	355.660
694.646	356.691
694.774	363.330
694.902	358.742
695.030	359.701
695.158	356.072
695.287	353.144
695.415	351.340
695.543	353.443
695.671	352.351
695.799	349.887
695.927	350.464
696.055	349.773
696.183	349.175
696.312	345.381
696.440	344.062
696.568	343.196
696.696	344.052
696.824	340.763
696.952	344.845
697.080	334.278
697.208	345.495
697.337	341.495
697.465	342.062
697.593	342.464
697.721	341.897
697.849	340.866
697.977	336.763
698.105	336.320
698.233	338.918
698.362	332.639
698.490	336.619
698.618	331.753
698.746	331.433
698.874	330.536
699.002	337.629
699.130	329.536
699.258	328.588
699.387	323.670
699.515	328.629
699.643	326.742
699.771	325.113
699.899	328.041
700.027	325.948
700.155	318.907
700.283	324.258
700.412	319.835
700.540	322.722
700.668	322.165
700.796	316.381
700.924	312.041
701.052	317.711
701.180	319.722
701.308	319.732
701.437	316.278
701.565	310.216
701.693	309.454
701.821	310.722
701.949	311.299
702.077	308.000
702.205	312.464
702.333	304.577
702.462	306.742
702.590	306.124
702.718	304.948
702.846	303.722
702.974	303.897
703.102	301.918
703.230	302.814
703.358	296.113
703.487	301.918
703.615	299.969
703.743	293.969
703.871	300.577
703.999	294.526
704.127	297.093
704.255	290.619
704.383	290.979
704.512	289.299
704.640	289.392
704.768	287.237
704.896	286.103
705.024	283.629
705.152	287.722
705.280	287.948
705.408	285.845
705.537	283.412
705.665	287.062
705.793	281.000
705.921	281.670
706.049	280.680
706.177	279.959
706.305	284.402
706.433	279.711
706.562	275.052
706.690	276.052
706.818	271.588
706.946	274.423
707.074	273.052
707.202	268.093
707.330	269.392
707.458	265.763
707.587	269.320
707.715	269.845
707.843	262.639
707.971	261.856
708.099	270.495
708.227	268.103
708.355	264.474
708.483	256.268
708.612	263.144
708.740	262.299
708.868	258.289
708.996	256.918
709.124	260.557
709.252	254.495
709.380	259.320
709.508	256.619
709.637	255.371
709.765	257.340
709.893	251.186
710.021	253.784
710.149	250.072
710.277	257.216
710.405	250.474
710.533	249.320
710.662	249.907
710.790	248.206
710.918	249.804
711.046	249.773
711.174	250.186
711.302	250.237
711.430	250.835
711.558	246.443
711.687	249.247
711.815	243.907
711.943	247.144
712.071	242.144
712.199	245.041
712.327	246.103
712.455	242.124
712.583	245.144
712.712	243.526
712.840	245.433
712.968	237.299
713.096	244.691
713.224	238.845
713.352	238.969
713.480	240.629
713.608	239.443
713.737	239.175
713.865	235.639
713.993	238.423
714.121	234.423
714.249	236.021
714.377	233.701
714.505	241.258
714.633	230.918
714.762	233.629
714.890	233.907
715.018	232.351
715.146	230.474
715.274	232.680
715.402	231.866
715.530	231.814
715.658	223.897
715.787	230.505
715.915	230.247
716.043	234.753
716.171	231.918
716.299	227.670
716.427	226.732
716.555	229.412
716.683	227.247
716.812	225.227
716.940	230.845
717.068	221.526
717.196	223.670
717.324	220.495
717.452	221.918
717.580	219.320
717.708	221.031
717.837	217.412
717.965	217.969
718.093	219.340
718.221	217.454
718.349	222.814
718.477	220.072
718.605	215.928
718.733	216.392
718.862	217.278
718.990	214.660
719.118	213.845
719.246	213.897
719.374	215.021
719.502	212.464
719.630	216.041
719.758	213.557
719.887	215.247
720.015	214.691
720.143	211.990
720.271	211.629
720.399	210.505
720.527	210.103
720.655	208.402
720.783	211.155
720.912	207.278
721.040	206.825
721.168	211.206
721.296	205.227
721.424	204.268
721.552	207.454
721.680	204.526
721.808	203.433
721.937	205.938
722.065	202.392
722.193	200.990
722.321	201.959
722.449	199.423
722.577	203.948
722.705	198.052
722.833	201.907
722.962	196.959
723.090	197.887
723.218	196.691
723.346	197.660
723.474	199.412
723.602	197.577
723.730	194.887
723.858	197.639
723.987	193.361
724.115	194.010
724.243	194.835
724.371	192.969
724.499	193.247
724.627	190.845
724.755	193.546
724.883	193.835
725.012	192.237
725.140	188.907
725.268	194.113
725.396	190.649
725.524	189.041
725.652	191.711
725.780	187.412
725.908	187.258
726.037	186.309
726.165	183.464
726.293	184.268
726.421	186.680
726.549	186.887
726.677	187.742
726.805	183.753
726.933	186.247
727.062	183.742
727.190	181.649
727.318	181.814
727.446	183.814
727.574	183.227
727.702	178.763
727.830	184.186
727.958	185.588
728.087	181.526
728.215	179.227
728.343	181.402
728.471	180.546
728.599	177.340
728.727	179.928
728.855	178.464
728.983	178.814
729.112	179.835
729.240	176.361
729.368	178.010
729.496	181.433
729.624	176.814
729.752	178.072
729.880	175.309
730.008	181.278
730.137	170.649
730.265	174.742
730.393	174.526
730.521	172.361
730.649	175.536
730.777	170.299
730.905	172.701
731.033	171.732
731.162	174.155
731.290	169.814
731.418	173.763
731.546	172.588
731.674	172.000
731.802	172.103
731.930	168.670
732.058	169.701
732.187	172.237
732.315	171.124
732.443	171.000
732.571	168.598
732.699	167.959
732.827	168.629
732.955	167.557
733.083	167.278
733.212	166.536
733.340	166.371
733.468	170.392
733.596	165.474
733.724	165.330
733.852	168.196
733.980	162.794
734.108	167.546
734.237	165.887
734.365	164.216
734.493	165.268
734.621	169.567
734.749	166.443
734.877	159.680
735.005	168.206
735.133	162.598
735.262	164.010
735.390	163.144
735.518	162.371
735.646	160.897
735.774	165.897
735.902	162.216
736.030	164.619
736.158	159.990
736.287	159.505
736.415	159.495
736.543	161.021
736.671	161.392
736.799	161.175
736.927	157.938
737.055	160.247
737.183	158.794
737.312	161.289
737.440	160.144
737.568	161.330
737.696	160.299
737.824	161.567
737.952	158.897
738.080	162.433
738.208	158.722
738.337	156.804
738.465	159.701
738.593	156.144
738.721	156.866
738.849	156.732
738.977	156.691
739.105	158.680
739.233	152.526
739.362	152.784
739.490	154.536
739.618	155.660
739.746	155.495
739.874	153.866
740.002	153.691
740.130	153.330
740.258	152.722
740.387	157.196
740.515	155.247
740.643	157.454
740.771	152.711
740.899	153.454
741.027	151.485
741.155	151.814
741.283	151.134
741.412	150.608
741.540	153.062
741.668	152.216
741.796	153.186
741.924	151.082
742.052	151.392
742.180	152.866
742.308	151.918
742.437	153.907
742.565	148.000
742.693	151.186
742.821	151.330
742.949	151.670
743.077	151.247
743.205	152.392
743.333	150.041
743.462	152.742
743.590	150.258
743.718	148.443
743.846	147.639
743.974	147.649
744.102	147.278
744.230	150.732
744.358	147.258
