Ref_Start_wo_Pol_at_750.00nm_cut_at_1184.50Y_01.dat
03.07.2023
10:43:15
cut middle at Y: 1184.50
top cursor: 1231 down cursor: 1138 mean of: 93 lines , 2560 datapoints
wavelength(nm)	intensity[arb. units]
585.996	26817.892
586.124	26332.871
586.252	26328.301
586.380	26451.645
586.508	26467.161
586.637	26598.355
586.765	26607.151
586.893	26672.570
587.021	26681.280
587.149	26789.065
587.277	26818.097
587.405	26823.108
587.533	26938.559
587.662	26913.817
587.790	26915.333
587.918	26870.817
588.046	26844.409
588.174	26948.355
588.302	26979.774
588.430	26990.624
588.558	26919.398
588.687	26982.699
588.815	27000.828
588.943	26943.667
589.071	26990.043
589.199	27040.355
589.327	26980.570
589.455	26995.817
589.583	26960.054
589.712	26960.161
589.840	26866.925
589.968	26914.430
590.096	26957.086
590.224	26952.215
590.352	27051.419
590.480	26921.559
590.608	26934.925
590.737	26948.204
590.865	26977.559
590.993	26804.538
591.121	26915.118
591.249	26961.075
591.377	26973.505
591.505	26944.538
591.633	26870.441
591.762	26929.011
591.890	26898.677
592.018	27042.968
592.146	27022.323
592.274	26965.602
592.402	26960.032
592.530	27144.946
592.658	27077.548
592.787	27123.237
592.915	27124.269
593.043	27067.710
593.171	27141.215
593.299	27135.204
593.427	27081.269
593.555	27174.473
593.683	27216.462
593.812	27232.817
593.940	27247.441
594.068	27286.903
594.196	27258.215
594.324	27367.387
594.452	27498.753
594.580	27463.946
594.708	27503.011
594.837	27516.409
594.965	27615.548
595.093	27659.344
595.221	27742.527
595.349	27759.484
595.477	27781.645
595.605	27841.462
595.733	27869.849
595.862	27839.290
595.990	27828.914
596.118	27968.355
596.246	28058.269
596.374	27956.548
596.502	28091.602
596.630	28082.914
596.758	28067.774
596.887	28186.247
597.015	28175.355
597.143	28201.548
597.271	28185.785
597.399	28322.484
597.527	28251.258
597.655	28226.817
597.783	28311.914
597.912	28293.452
598.040	28379.452
598.168	28303.527
598.296	28267.925
598.424	28438.645
598.552	28261.699
598.680	28307.258
598.808	28335.710
598.937	28307.505
599.065	28315.043
599.193	28319.086
599.321	28350.978
599.449	28222.495
599.577	28196.849
599.705	28194.151
599.833	28127.387
599.962	28141.462
600.090	28119.699
600.218	28040.043
600.346	28120.441
600.474	28040.409
600.602	28009.151
600.730	27999.312
600.858	28077.323
600.987	28110.591
601.115	28043.849
601.243	28104.387
601.371	28154.968
601.499	28126.237
601.627	28165.151
601.755	28109.785
601.883	28137.763
602.012	27989.613
602.140	28145.097
602.268	28126.968
602.396	28275.366
602.524	28224.796
602.652	28341.398
602.780	28240.677
602.908	28407.505
603.037	28458.763
603.165	28498.677
603.293	28615.860
603.421	28569.989
603.549	28586.140
603.677	28733.032
603.805	28771.796
603.933	28811.978
604.062	28942.462
604.190	29049.376
604.318	29052.355
604.446	29097.591
604.574	29186.075
604.702	29207.839
604.830	29230.710
604.958	29316.355
605.087	29450.839
605.215	29616.828
605.343	29635.172
605.471	29673.914
605.599	29720.946
605.727	29840.258
605.855	29915.978
605.983	30016.645
606.112	30092.796
606.240	30066.656
606.368	30102.892
606.496	30118.570
606.624	30250.935
606.752	30217.882
606.880	30243.280
607.008	30271.882
607.137	30318.828
607.265	30393.903
607.393	30431.839
607.521	30509.978
607.649	30425.817
607.777	30449.613
607.905	30447.828
608.033	30451.258
608.162	30441.409
608.290	30413.398
608.418	30492.667
608.546	30453.817
608.674	30538.484
608.802	30478.624
608.930	30480.527
609.058	30423.538
609.187	30440.839
609.315	30433.441
609.443	30407.667
609.571	30519.882
609.699	30331.860
609.827	30412.086
609.955	30327.290
610.083	30270.763
610.212	30252.731
610.340	30183.237
610.468	30190.720
610.596	30137.301
610.724	30152.591
610.852	30196.699
610.980	30156.161
611.108	30143.989
611.237	30146.978
611.365	30109.925
611.493	30110.000
611.621	30069.312
611.749	30117.290
611.877	30175.849
612.005	30120.634
612.133	30093.140
612.262	30154.731
612.390	30152.774
612.518	30303.194
612.646	30234.129
612.774	30286.151
612.902	30268.172
613.030	30361.118
613.158	30296.699
613.287	30319.215
613.415	30297.495
613.543	30314.602
613.671	30343.333
613.799	30389.022
613.927	30430.957
614.055	30507.505
614.183	30465.989
614.312	30500.699
614.440	30664.097
614.568	30638.323
614.696	30703.290
614.824	30718.355
614.952	30796.333
615.080	30838.849
615.208	30910.129
615.337	31062.097
615.465	30982.355
615.593	31059.323
615.721	30999.301
615.849	31169.892
615.977	31196.656
616.105	31219.667
616.233	31324.430
616.362	31367.301
616.490	31413.452
616.618	31439.140
616.746	31531.656
616.874	31513.871
617.002	31622.097
617.130	31654.301
617.258	31584.602
617.387	31694.710
617.515	31673.785
617.643	31690.742
617.771	31720.065
617.899	31770.968
618.027	31768.237
618.155	31822.763
618.283	31826.839
618.412	31862.656
618.540	31933.183
618.668	31860.839
618.796	31909.796
618.924	31853.118
619.052	31868.290
619.180	31827.591
619.308	31786.602
619.437	31801.839
619.565	31849.086
619.693	31813.495
619.821	31841.763
619.949	31778.806
620.077	31812.742
620.205	31898.667
620.333	31825.430
620.462	31815.774
620.590	31823.280
620.718	31801.849
620.846	31770.677
620.974	31833.237
621.102	31862.097
621.230	31801.151
621.358	31887.538
621.487	31784.194
621.615	31727.645
621.743	31671.828
621.871	31725.108
621.999	31701.753
622.127	31702.118
622.255	31670.204
622.383	31633.753
622.512	31587.161
622.640	31590.065
622.768	31642.946
622.896	31611.968
623.024	31620.849
623.152	31551.419
623.280	31678.097
623.408	31558.624
623.537	31627.720
623.665	31583.753
623.793	31585.183
623.921	31537.333
624.049	31508.484
624.177	31493.312
624.305	31501.839
624.433	31462.538
624.562	31441.441
624.690	31507.849
624.818	31372.462
624.946	31346.204
625.074	31368.505
625.202	31381.452
625.330	31334.968
625.458	31433.710
625.587	31354.602
625.715	31373.688
625.843	31341.677
625.971	31330.215
626.099	31270.172
626.227	31264.753
626.355	31251.108
626.483	31340.763
626.612	31238.323
626.740	31346.140
626.868	31301.667
626.996	31349.817
627.124	31272.226
627.252	31315.677
627.380	31333.602
627.508	31173.763
627.637	31293.441
627.765	31330.237
627.893	31382.161
628.021	31388.753
628.149	31283.935
628.277	31351.989
628.405	31284.237
628.533	31308.183
628.662	31316.075
628.790	31412.290
628.918	31351.742
629.046	31481.849
629.174	31394.785
629.302	31420.043
629.430	31425.710
629.558	31393.312
629.687	31462.075
629.815	31460.677
629.943	31613.559
630.071	31571.280
630.199	31594.548
630.327	31575.387
630.455	31645.301
630.583	31646.054
630.712	31590.699
630.840	31655.505
630.968	31611.710
631.096	31635.645
631.224	31628.516
631.352	31782.903
631.480	31718.484
631.608	31914.806
631.737	31728.914
631.865	31801.667
631.993	31757.441
632.121	31955.656
632.249	31884.280
632.377	31846.860
632.505	31851.484
632.633	31979.280
632.762	31809.097
632.890	31863.226
633.018	31824.301
633.146	31772.538
633.274	31798.043
633.402	31802.398
633.530	31727.409
633.658	31776.409
633.787	31795.667
633.915	31753.054
634.043	31789.022
634.171	31742.215
634.299	31766.097
634.427	31696.129
634.555	31912.925
634.683	31676.462
634.812	31631.032
634.940	31601.312
635.068	31571.677
635.196	31519.817
635.324	31524.892
635.452	31480.140
635.580	31558.817
635.708	31456.796
635.837	31448.763
635.965	31332.785
636.093	31343.699
636.221	31200.075
636.349	31138.839
636.477	31114.968
636.605	31144.774
636.733	31040.344
636.862	31003.699
636.990	30950.215
637.118	30890.817
637.246	30817.570
637.374	30874.430
637.502	30663.527
637.630	30640.882
637.758	30601.516
637.887	30465.011
638.015	30611.054
638.143	30484.527
638.271	30340.043
638.399	30353.409
638.527	30277.774
638.655	30262.398
638.783	30162.452
638.912	30089.925
639.040	29994.957
639.168	29929.183
639.296	29886.570
639.424	29932.849
639.552	29784.538
639.680	29815.645
639.808	29679.591
639.937	29623.753
640.065	29684.677
640.193	29696.871
640.321	29743.366
640.449	29728.323
640.577	29543.355
640.705	29564.333
640.833	29487.215
640.962	29535.355
641.090	29434.656
641.218	29395.054
641.346	29460.269
641.474	29411.559
641.602	29351.355
641.730	29359.860
641.858	29307.108
641.987	29352.194
642.115	29428.946
642.243	29260.570
642.371	29394.602
642.499	29181.645
642.627	29284.194
642.755	29176.763
642.883	29200.301
643.012	29147.462
643.140	29226.054
643.268	29185.430
643.396	29088.344
643.524	29175.559
643.652	29172.355
643.780	29114.022
643.908	29074.903
644.037	29171.527
644.165	29128.570
644.293	29183.817
644.421	29035.624
644.549	29093.699
644.677	29012.602
644.805	28975.602
644.933	28986.710
645.062	29009.290
645.190	29120.978
645.318	28981.226
645.446	28902.140
645.574	28881.505
645.702	28890.548
645.830	28862.699
645.958	28798.591
646.087	28793.688
646.215	28769.710
646.343	28780.613
646.471	28878.516
646.599	28670.548
646.727	28659.817
646.855	28674.516
646.983	28628.785
647.112	28630.731
647.240	28549.183
647.368	28603.914
647.496	28534.849
647.624	28454.032
647.752	28484.581
647.880	28402.720
648.008	28409.495
648.137	28453.968
648.265	28327.656
648.393	28401.011
648.521	28291.849
648.649	28381.032
648.777	28202.108
648.905	28073.043
649.033	28116.785
649.162	28014.710
649.290	27848.602
649.418	27896.194
649.546	27991.022
649.674	27836.441
649.802	27748.645
649.930	27670.516
650.058	27610.591
650.187	27669.538
650.315	27586.677
650.443	27568.548
650.571	27381.344
650.699	27348.634
650.827	27322.720
650.955	27191.258
651.083	27245.129
651.212	27081.527
651.340	27106.118
651.468	26989.355
651.596	26979.022
651.724	26954.817
651.852	26853.344
651.980	26857.785
652.108	26725.839
652.237	26730.785
652.365	26698.247
652.493	26616.484
652.621	26508.419
652.749	26507.828
652.877	26497.591
653.005	26519.086
653.133	26384.204
653.262	26363.269
653.390	26280.183
653.518	26314.634
653.646	26094.409
653.774	26055.968
653.902	26133.204
654.030	26054.677
654.158	25960.946
654.287	25916.720
654.415	25838.860
654.543	25856.634
654.671	25795.140
654.799	25718.301
654.927	25645.548
655.055	25586.129
655.183	25560.204
655.312	25539.237
655.440	25431.011
655.568	25498.280
655.696	25369.484
655.824	25380.161
655.952	25324.097
656.080	25178.333
656.208	25154.398
656.337	25202.398
656.465	25282.806
656.593	25053.247
656.721	25081.839
656.849	25067.892
656.977	24837.237
657.105	24837.688
657.233	24890.333
657.362	24836.387
657.490	24787.634
657.618	24741.269
657.746	24669.914
657.874	24480.860
658.002	24467.452
658.130	24312.129
658.258	24250.333
658.387	24218.925
658.515	24214.785
658.643	24093.258
658.771	24151.333
658.899	24017.290
659.027	24011.817
659.155	23974.129
659.283	23906.871
659.412	23819.258
659.540	23810.925
659.668	23811.065
659.796	23857.796
659.924	23807.022
660.052	23833.032
660.180	23765.333
660.308	23769.441
660.437	23681.753
660.565	23609.301
660.693	23470.602
660.821	23568.376
660.949	23399.581
661.077	23420.613
661.205	23528.237
661.333	23338.989
661.462	23255.247
661.590	23313.387
661.718	23137.355
661.846	23150.914
661.974	23065.656
662.102	23050.086
662.230	23033.667
662.358	22852.247
662.487	22891.828
662.615	22852.409
662.743	22840.796
662.871	22773.398
662.999	22667.151
663.127	22628.161
663.255	22610.258
663.383	22715.656
663.512	22480.871
663.640	22450.312
663.768	22469.409
663.896	22406.935
664.024	22387.699
664.152	22335.989
664.280	22369.086
664.408	22233.118
664.537	22204.667
664.665	22193.333
664.793	22163.710
664.921	22045.871
665.049	22116.570
665.177	22039.441
665.305	22021.656
665.433	21969.677
665.562	22055.151
665.690	21921.226
665.818	22015.591
665.946	21840.140
666.074	21769.527
666.202	21731.720
666.330	21656.731
666.458	21987.774
666.587	21630.720
666.715	21577.634
666.843	21505.194
666.971	21500.108
667.099	21472.473
667.227	21488.817
667.355	21468.774
667.483	21319.183
667.612	21396.462
667.740	21283.215
667.868	21238.247
667.996	21237.839
668.124	21256.462
668.252	21317.817
668.380	21099.183
668.508	21159.333
668.637	21017.161
668.765	20987.075
668.893	20920.570
669.021	20856.280
669.149	20918.871
669.277	20761.000
669.405	20902.237
669.533	20866.151
669.662	20768.065
669.790	20670.860
669.918	20718.516
670.046	20772.538
670.174	20525.731
670.302	20525.774
670.430	20401.151
670.558	20457.946
670.687	20567.989
670.815	20313.817
670.943	20346.000
671.071	20203.882
671.199	20134.796
671.327	20128.624
671.455	20178.333
671.583	20085.624
671.712	20044.978
671.840	19997.849
671.968	20086.247
672.096	20006.097
672.224	19814.516
672.352	19742.613
672.480	19643.097
672.608	19663.462
672.737	19594.280
672.865	19524.656
672.993	19460.129
673.121	19382.032
673.249	19385.054
673.377	19280.677
673.505	19226.742
673.633	19293.591
673.762	19147.495
673.890	19178.183
674.018	19151.548
674.146	19073.419
674.274	19020.828
674.402	19011.753
674.530	18908.355
674.658	18803.280
674.787	18769.591
674.915	18830.860
675.043	18689.333
675.171	18646.194
675.299	18502.828
675.427	18498.301
675.555	18440.086
675.683	18431.978
675.812	18374.495
675.940	18338.183
676.068	18225.581
676.196	18242.086
676.324	18140.215
676.452	18073.806
676.580	18006.323
676.708	17956.720
676.837	17898.817
676.965	17953.774
677.093	17962.011
677.221	17789.183
677.349	17682.366
677.477	17734.129
677.605	17623.075
677.733	17557.957
677.862	17450.989
677.990	17503.247
678.118	17442.452
678.246	17355.409
678.374	17369.043
678.502	17266.183
678.630	17159.075
678.758	17125.946
678.887	17210.720
679.015	17023.774
679.143	16976.129
679.271	16946.387
679.399	16907.570
679.527	16857.645
679.655	16903.688
679.783	16759.559
679.912	16675.785
680.040	16790.828
680.168	16595.753
680.296	16590.839
680.424	16547.398
680.552	16483.774
680.680	16413.774
680.808	16397.118
680.937	16313.065
681.065	16355.763
681.193	16258.548
681.321	16141.194
681.449	16217.452
681.577	16114.634
681.705	16101.720
681.833	16074.763
681.962	15997.075
682.090	15957.398
682.218	15920.215
682.346	15879.000
682.474	15794.763
682.602	15780.978
682.730	15777.946
682.858	15706.753
682.987	15686.172
683.115	15670.699
683.243	15643.473
683.371	15605.957
683.499	15532.720
683.627	15522.516
683.755	15472.430
683.883	15421.323
684.012	15396.344
684.140	15327.667
684.268	15349.280
684.396	15374.839
684.524	15319.989
684.652	15307.086
684.780	15259.194
684.908	15224.925
685.037	15212.516
685.165	15136.677
685.293	15164.226
685.421	15154.194
685.549	15083.301
685.677	15022.258
685.805	15003.903
685.933	14934.097
686.062	14919.882
686.190	14910.957
686.318	14812.000
686.446	14792.183
686.574	14741.946
686.702	14756.323
686.830	14672.860
686.958	14687.043
687.087	14636.978
687.215	14598.194
687.343	14553.301
687.471	14716.022
687.599	14442.699
687.727	14424.645
687.855	14366.140
687.983	14343.312
688.112	14322.043
688.240	14333.000
688.368	14306.280
688.496	14247.366
688.624	14163.462
688.752	14290.860
688.880	14155.161
689.008	14141.785
689.137	14087.505
689.265	13972.667
689.393	14000.484
689.521	13948.624
689.649	13986.226
689.777	13888.323
689.905	13911.000
690.033	13776.699
690.162	13741.570
690.290	13802.903
690.418	13691.495
690.546	13704.226
690.674	13693.753
690.802	13678.645
690.930	13566.032
691.058	13559.903
691.187	13476.419
691.315	13439.194
691.443	13390.613
691.571	13403.957
691.699	13325.323
691.827	13272.731
691.955	13268.376
692.083	13187.806
692.212	13194.860
692.340	13191.516
692.468	13168.290
692.596	13095.989
692.724	13009.828
692.852	13056.914
692.980	13012.785
693.108	13014.419
693.237	12886.925
693.365	12859.312
693.493	12834.215
693.621	12798.591
693.749	12738.946
693.877	12752.688
694.005	12628.688
694.133	12554.989
694.262	12585.441
694.390	12528.247
694.518	12497.989
694.646	12457.129
694.774	12370.968
694.902	12324.871
695.030	12303.301
695.158	12258.774
695.287	12205.946
695.415	12187.763
695.543	12182.634
695.671	12062.882
695.799	12191.903
695.927	12040.215
696.055	12047.473
696.183	11915.043
696.312	12106.323
696.440	11948.817
696.568	11931.462
696.696	11731.785
696.824	11693.710
696.952	11684.194
697.080	11666.806
697.208	11609.000
697.337	11558.108
697.465	11523.097
697.593	11447.763
697.721	11540.376
697.849	11400.624
697.977	11388.871
698.105	11413.720
698.233	11330.871
698.362	11213.237
698.490	11349.108
698.618	11147.129
698.746	11140.581
698.874	11166.624
699.002	11097.000
699.130	11053.312
699.258	10983.344
699.387	10910.075
699.515	10912.527
699.643	10906.871
699.771	10926.161
699.899	10783.871
700.027	10739.892
700.155	10754.527
700.283	10603.742
700.412	10641.194
700.540	10613.806
700.668	10643.624
700.796	10499.860
700.924	10533.452
701.052	10503.333
701.180	10456.731
701.308	10366.667
701.437	10347.591
701.565	10317.108
701.693	10315.430
701.821	10459.763
701.949	10187.215
702.077	10210.161
702.205	10218.645
702.333	10097.452
702.462	10051.720
702.590	10085.430
702.718	9963.118
702.846	10108.301
702.974	9905.484
703.102	9886.645
703.230	9838.785
703.358	9786.957
703.487	9764.355
703.615	9748.258
703.743	9688.796
703.871	9675.355
703.999	9636.763
704.127	9585.656
704.255	9532.280
704.383	9550.129
704.512	9577.645
704.640	9475.065
704.768	9541.978
704.896	9363.548
705.024	9307.978
705.152	9327.602
705.280	9321.828
705.408	9193.989
705.537	9175.656
705.665	9166.129
705.793	9106.301
705.921	9062.462
706.049	8996.086
706.177	9029.828
706.305	8935.000
706.433	8964.505
706.562	8912.473
706.690	8893.409
706.818	8855.204
706.946	8772.398
707.074	8730.570
707.202	8688.796
707.330	8641.172
707.458	8624.710
707.587	8556.667
707.715	8589.151
707.843	8571.806
707.971	8571.473
708.099	8432.946
708.227	8393.527
708.355	8384.710
708.483	8340.011
708.612	8344.452
708.740	8241.247
708.868	8261.849
708.996	8267.065
709.124	8234.806
709.252	8182.355
709.380	8214.473
709.508	8114.022
709.637	8120.634
709.765	8056.226
709.893	8073.925
710.021	7974.667
710.149	8041.215
710.277	7905.032
710.405	7907.011
710.533	7891.398
710.662	7836.204
710.790	7924.161
710.918	7774.527
711.046	7788.710
711.174	7740.280
711.302	7731.075
711.430	7681.527
711.558	7713.032
711.687	7660.387
711.815	7571.290
711.943	7533.624
712.071	7539.484
712.199	7548.892
712.327	7575.882
712.455	7437.065
712.583	7635.774
712.712	7452.925
712.840	7487.935
712.968	7394.645
713.096	7373.344
713.224	7312.925
713.352	7299.710
713.480	7218.355
713.608	7195.989
713.737	7159.387
713.865	7240.366
713.993	7173.581
714.121	7146.441
714.249	7089.032
714.377	7066.516
714.505	7013.699
714.633	7033.215
714.762	6973.075
714.890	6948.054
715.018	6929.774
715.146	6976.473
715.274	6884.086
715.402	6868.688
715.530	6848.495
715.658	6858.194
715.787	6814.043
715.915	6879.688
716.043	6760.839
716.171	6882.699
716.299	6680.538
716.427	6778.333
716.555	6647.968
716.683	6639.237
716.812	6610.871
716.940	6576.151
717.068	6537.817
717.196	6713.656
717.324	6553.258
717.452	6523.151
717.580	6542.344
717.708	6428.817
717.837	6430.161
717.965	6461.946
718.093	6368.301
718.221	6408.129
718.349	6422.323
718.477	6297.817
718.605	6377.742
718.733	6307.452
718.862	6311.258
718.990	6212.333
719.118	6273.903
719.246	6187.258
719.374	6147.699
719.502	6189.903
719.630	6254.591
719.758	6060.194
719.887	6040.989
720.015	6095.849
720.143	6120.527
