70_100_wo_Pol_at_750.00nm_cut_at_1184.50Y_01.dat
03.07.2023
10:36:26
cut middle at Y: 1184.50
top cursor: 1231 down cursor: 1138 mean of: 93 lines , 2560 datapoints
wavelength(nm)	intensity[arb. units]
585.996	28020.989
586.124	27595.731
586.252	27613.753
586.380	27634.183
586.508	27778.226
586.637	27855.860
586.765	27893.903
586.893	28008.462
587.021	28027.591
587.149	28115.462
587.277	28210.118
587.405	28212.849
587.533	28320.011
587.662	28356.280
587.790	28341.914
587.918	28323.677
588.046	28356.516
588.174	28479.462
588.302	28462.108
588.430	28488.108
588.558	28489.624
588.687	28570.753
588.815	28651.118
588.943	28579.914
589.071	28562.161
589.199	28652.290
589.327	28692.968
589.455	28696.774
589.583	28692.269
589.712	28733.624
589.840	28647.839
589.968	28708.452
590.096	28793.409
590.224	28809.247
590.352	28978.903
590.480	28836.183
590.608	28774.495
590.737	28803.215
590.865	28906.065
590.993	28787.839
591.121	28804.849
591.249	28909.602
591.377	28988.269
591.505	28998.602
591.633	28937.086
591.762	28969.935
591.890	29041.516
592.018	29098.731
592.146	29159.688
592.274	29089.935
592.402	29139.935
592.530	29384.226
592.658	29332.710
592.787	29318.075
592.915	29457.516
593.043	29308.484
593.171	29440.204
593.299	29474.581
593.427	29514.301
593.555	29645.118
593.683	29637.828
593.812	29686.172
593.940	29789.817
594.068	29831.376
594.196	29890.376
594.324	29913.237
594.452	30166.000
594.580	30114.634
594.708	30280.978
594.837	30290.839
594.965	30433.699
595.093	30508.774
595.221	30699.108
595.349	30669.473
595.477	30658.570
595.605	30832.527
595.733	30871.849
595.862	30902.613
595.990	30936.946
596.118	31027.677
596.246	31164.419
596.374	31193.946
596.502	31245.774
596.630	31314.161
596.758	31302.140
596.887	31494.430
597.015	31538.269
597.143	31524.570
597.271	31492.935
597.399	31702.022
597.527	31657.441
597.655	31697.312
597.783	31718.828
597.912	31773.828
598.040	31819.161
598.168	31819.849
598.296	31781.634
598.424	31996.473
598.552	31821.968
598.680	31910.925
598.808	31993.129
598.937	31970.677
599.065	31949.538
599.193	32016.527
599.321	32021.849
599.449	31948.419
599.577	31981.892
599.705	31985.398
599.833	31967.559
599.962	31958.398
600.090	32012.376
600.218	31888.731
600.346	31992.806
600.474	32007.398
600.602	32031.172
600.730	32034.796
600.858	32140.860
600.987	32250.817
601.115	32178.280
601.243	32282.462
601.371	32321.667
601.499	32291.430
601.627	32480.172
601.755	32453.312
601.883	32515.011
602.012	32422.613
602.140	32521.333
602.268	32526.140
602.396	32804.710
602.524	32878.473
602.652	33011.548
602.780	33006.312
602.908	33118.753
603.037	33292.151
603.165	33334.989
603.293	33419.258
603.421	33510.860
603.549	33612.054
603.677	33678.398
603.805	33867.849
603.933	33931.097
604.062	34180.581
604.190	34270.634
604.318	34372.011
604.446	34423.860
604.574	34579.473
604.702	34726.140
604.830	34754.978
604.958	34880.806
605.087	35040.183
605.215	35313.194
605.343	35391.968
605.471	35471.914
605.599	35546.946
605.727	35732.527
605.855	35820.366
605.983	35971.333
606.112	36069.484
606.240	36154.699
606.368	36165.000
606.496	36261.118
606.624	36381.398
606.752	36457.441
606.880	36630.097
607.008	36677.839
607.137	36673.022
607.265	36884.355
607.393	36881.591
607.521	36983.710
607.649	37044.140
607.777	36996.774
607.905	37115.828
608.033	37135.677
608.162	37168.731
608.290	37139.839
608.418	37309.398
608.546	37353.430
608.674	37411.419
608.802	37310.839
608.930	37351.656
609.058	37429.710
609.187	37468.054
609.315	37449.785
609.443	37537.978
609.571	37629.161
609.699	37434.032
609.827	37591.688
609.955	37557.247
610.083	37549.495
610.212	37604.215
610.340	37564.796
610.468	37661.495
610.596	37670.656
610.724	37630.462
610.852	37707.634
610.980	37762.978
611.108	37801.452
611.237	37809.742
611.365	37900.323
611.493	37840.075
611.621	37970.312
611.749	38015.237
611.877	38070.935
612.005	38131.989
612.133	38242.538
612.262	38276.462
612.390	38331.280
612.518	38486.570
612.646	38579.495
612.774	38668.312
612.902	38711.258
613.030	38808.968
613.158	38752.194
613.287	38940.097
613.415	38961.086
613.543	39093.075
613.671	39095.183
613.799	39210.301
613.927	39354.140
614.055	39536.828
614.183	39610.301
614.312	39630.441
614.440	39830.409
614.568	39870.978
614.696	40078.731
614.824	40079.527
614.952	40222.323
615.080	40284.065
615.208	40483.968
615.337	40640.000
615.465	40586.484
615.593	40834.989
615.721	40875.075
615.849	41036.538
615.977	41120.000
616.105	41258.731
616.233	41442.720
616.362	41632.591
616.490	41596.516
616.618	41745.301
616.746	41882.409
616.874	42011.183
617.002	42192.409
617.130	42194.387
617.258	42187.140
617.387	42379.591
617.515	42486.570
617.643	42548.075
617.771	42700.538
617.899	42682.409
618.027	42784.946
618.155	42903.011
618.283	43023.871
618.412	43146.978
618.540	43256.774
618.668	43184.548
618.796	43339.011
618.924	43336.204
619.052	43467.022
619.180	43493.989
619.308	43490.624
619.437	43600.043
619.565	43644.097
619.693	43615.785
619.821	43771.301
619.949	43855.796
620.077	43911.484
620.205	44045.011
620.333	44006.065
620.462	44061.860
620.590	44121.892
620.718	44177.204
620.846	44286.312
620.974	44288.677
621.102	44354.656
621.230	44363.022
621.358	44553.957
621.487	44512.753
621.615	44544.075
621.743	44482.043
621.871	44582.538
621.999	44608.882
622.127	44638.000
622.255	44758.011
622.383	44679.849
622.512	44752.452
622.640	44749.527
622.768	44908.935
622.896	44964.538
623.024	44936.667
623.152	45014.398
623.280	45101.355
623.408	45142.301
623.537	45211.796
623.665	45194.312
623.793	45288.237
623.921	45256.226
624.049	45350.269
624.177	45365.957
624.305	45358.011
624.433	45430.710
624.562	45515.161
624.690	45598.817
624.818	45535.344
624.946	45476.065
625.074	45612.871
625.202	45605.000
625.330	45601.763
625.458	45838.495
625.587	45828.280
625.715	45867.075
625.843	45896.204
625.971	46042.785
626.099	46018.559
626.227	46056.054
626.355	46063.806
626.483	46126.978
626.612	46167.645
626.740	46353.000
626.868	46392.108
626.996	46451.538
627.124	46549.043
627.252	46573.419
627.380	46676.419
627.508	46665.495
627.637	46773.075
627.765	46914.505
627.893	46933.011
628.021	46997.065
628.149	46958.495
628.277	47121.161
628.405	47164.763
628.533	47282.237
628.662	47331.237
628.790	47451.613
628.918	47527.000
629.046	47715.613
629.174	47612.452
629.302	47796.161
629.430	47855.430
629.558	47914.505
629.687	47983.237
629.815	48150.527
629.943	48371.806
630.071	48384.312
630.199	48539.387
630.327	48662.806
630.455	48631.935
630.583	48777.301
630.712	48817.247
630.840	49015.194
630.968	48975.226
631.096	49093.710
631.224	49197.323
631.352	49347.065
631.480	49374.409
631.608	49649.247
631.737	49590.129
631.865	49703.516
631.993	49783.097
632.121	50011.140
632.249	50010.022
632.377	50023.118
632.505	50106.903
632.633	50378.839
632.762	50234.022
632.890	50310.398
633.018	50362.892
633.146	50406.903
633.274	50440.290
633.402	50597.355
633.530	50552.925
633.658	50638.430
633.787	50637.785
633.915	50710.419
634.043	50767.688
634.171	50847.634
634.299	50860.280
634.427	50883.699
634.555	51108.505
634.683	50958.624
634.812	51011.731
634.940	50911.011
635.068	50968.892
635.196	50925.226
635.324	50984.387
635.452	50894.871
635.580	51113.796
635.708	50973.527
635.837	51053.656
635.965	50988.000
636.093	50956.527
636.221	50894.538
636.349	50841.645
636.477	50864.914
636.605	50956.419
636.733	50843.645
636.862	50840.140
636.990	50832.194
637.118	50755.290
637.246	50714.118
637.374	50876.591
637.502	50598.699
637.630	50612.441
637.758	50609.086
637.887	50529.419
638.015	50619.258
638.143	50464.065
638.271	50398.280
638.399	50495.645
638.527	50364.720
638.655	50423.323
638.783	50289.914
638.912	50323.710
639.040	50240.989
639.168	50140.828
639.296	50240.000
639.424	50343.237
639.552	50162.000
639.680	50232.763
639.808	50133.333
639.937	50176.194
640.065	50200.613
640.193	50170.796
640.321	50306.667
640.449	50300.968
640.577	50283.892
640.705	50298.000
640.833	50181.871
640.962	50368.054
641.090	50219.892
641.218	50211.075
641.346	50367.323
641.474	50399.075
641.602	50428.527
641.730	50477.946
641.858	50393.624
641.987	50455.312
642.115	50732.441
642.243	50602.903
642.371	50795.462
642.499	50519.892
642.627	50707.849
642.755	50640.000
642.883	50753.333
643.012	50735.376
643.140	50857.366
643.268	50904.957
643.396	50930.871
643.524	50990.054
643.652	51056.892
643.780	51065.215
643.908	51079.172
644.037	51206.720
644.165	51232.452
644.293	51359.462
644.421	51195.634
644.549	51366.613
644.677	51312.785
644.805	51302.075
644.933	51299.344
645.062	51457.688
645.190	51569.172
645.318	51547.935
645.446	51464.183
645.574	51506.742
645.702	51459.527
645.830	51560.355
645.958	51521.097
646.087	51518.688
646.215	51549.409
646.343	51511.505
646.471	51684.935
646.599	51489.194
646.727	51580.796
646.855	51579.280
646.983	51493.624
647.112	51599.376
647.240	51439.516
647.368	51573.935
647.496	51517.882
647.624	51549.183
647.752	51397.914
647.880	51539.667
648.008	51464.527
648.137	51549.602
648.265	51483.968
648.393	51520.774
648.521	51445.538
648.649	51525.495
648.777	51394.247
648.905	51268.591
649.033	51272.301
649.162	51091.720
649.290	51066.484
649.418	51059.677
649.546	51208.086
649.674	51054.075
649.802	50894.086
649.930	50777.280
650.058	50798.022
650.187	50767.022
650.315	50720.247
650.443	50728.613
650.571	50456.925
650.699	50558.022
650.827	50473.247
650.955	50224.882
651.083	50413.538
651.212	50242.925
651.340	50235.075
651.468	50137.129
651.596	50104.118
651.724	50016.935
651.852	49960.516
651.980	50025.710
652.108	49784.978
652.237	49845.409
652.365	49707.301
652.493	49646.032
652.621	49575.699
652.749	49547.774
652.877	49522.548
653.005	49446.742
653.133	49416.914
653.262	49230.882
653.390	49167.312
653.518	49267.613
653.646	49135.172
653.774	49010.538
653.902	49047.935
654.030	48899.484
654.158	48784.301
654.287	48767.581
654.415	48641.172
654.543	48760.882
654.671	48659.140
654.799	48500.183
654.927	48441.032
655.055	48354.054
655.183	48357.968
655.312	48341.065
655.440	48267.624
655.568	48179.796
655.696	48068.860
655.824	48055.118
655.952	48032.774
656.080	47880.602
656.208	47885.387
656.337	47870.333
656.465	47912.570
656.593	47653.839
656.721	47674.097
656.849	47675.129
656.977	47432.570
657.105	47384.452
657.233	47406.613
657.362	47400.441
657.490	47273.290
657.618	47279.935
657.746	47181.559
657.874	46945.581
658.002	46859.731
658.130	46663.753
658.258	46682.452
658.387	46667.065
658.515	46587.742
658.643	46481.871
658.771	46506.505
658.899	46448.075
659.027	46390.505
659.155	46229.484
659.283	46188.011
659.412	46104.602
659.540	46106.473
659.668	46025.957
659.796	46079.516
659.924	46019.419
660.052	46036.355
660.180	45979.108
660.308	46016.849
660.437	45939.054
660.565	45779.097
660.693	45607.785
660.821	45654.882
660.949	45460.108
661.077	45385.581
661.205	45563.280
661.333	45359.677
661.462	45267.054
661.590	45210.839
661.718	45034.204
661.846	45064.828
661.974	44986.269
662.102	44976.925
662.230	44831.269
662.358	44713.527
662.487	44717.828
662.615	44743.538
662.743	44601.968
662.871	44667.602
662.999	44512.774
663.127	44369.634
663.255	44359.237
663.383	44405.452
663.512	44187.065
663.640	44166.882
663.768	44168.462
663.896	44054.581
664.024	44006.000
664.152	43933.656
664.280	44007.903
664.408	43870.720
664.537	43773.828
664.665	43738.925
664.793	43733.161
664.921	43675.548
665.049	43718.731
665.177	43533.065
665.305	43517.473
665.433	43551.914
665.562	43553.183
665.690	43396.946
665.818	43600.237
665.946	43291.763
666.074	43198.118
666.202	43222.516
666.330	43136.613
666.458	43250.753
666.587	43049.409
666.715	43012.570
666.843	42890.516
666.971	42905.903
667.099	42816.946
667.227	42835.570
667.355	42777.183
667.483	42719.957
667.612	42727.688
667.740	42643.387
667.868	42488.849
667.996	42509.989
668.124	42497.215
668.252	42487.624
668.380	42341.366
668.508	42338.839
668.637	42201.462
668.765	42192.903
668.893	42103.204
669.021	42001.839
669.149	41994.645
669.277	41882.108
669.405	41991.602
669.533	41876.108
669.662	41703.140
669.790	41669.226
669.918	41596.333
670.046	41703.613
670.174	41374.774
670.302	41389.624
670.430	41209.667
670.558	41246.785
670.687	41285.301
670.815	41076.828
670.943	41043.409
671.071	40970.237
671.199	40798.849
671.327	40746.452
671.455	40854.032
671.583	40594.129
671.712	40528.753
671.840	40429.559
671.968	40519.151
672.096	40367.441
672.224	40180.495
672.352	40104.645
672.480	39966.333
672.608	39878.086
672.737	39783.258
672.865	39692.839
672.993	39601.935
673.121	39547.419
673.249	39452.194
673.377	39361.269
673.505	39233.409
673.633	39207.634
673.762	39073.376
673.890	38991.215
674.018	38945.151
674.146	38775.011
674.274	38778.688
674.402	38688.763
674.530	38554.860
674.658	38354.022
674.787	38330.032
674.915	38367.602
675.043	38202.882
675.171	37984.194
675.299	37902.140
675.427	37838.892
675.555	37767.355
675.683	37703.839
675.812	37508.452
675.940	37483.237
676.068	37302.140
676.196	37295.376
676.324	37063.118
676.452	37068.591
676.580	36897.097
676.708	36858.817
676.837	36734.032
676.965	36727.538
677.093	36738.247
677.221	36451.086
677.349	36290.011
677.477	36277.989
677.605	36106.957
677.733	36044.839
677.862	35973.849
677.990	35869.075
678.118	35809.226
678.246	35700.548
678.374	35660.731
678.502	35468.527
678.630	35408.290
678.758	35344.882
678.887	35426.323
679.015	35100.452
679.143	35055.312
679.271	34939.667
679.399	34923.548
679.527	34796.699
679.655	34833.387
679.783	34547.591
679.912	34478.731
680.040	34565.591
680.168	34416.505
680.296	34276.075
680.424	34271.172
680.552	34110.247
680.680	34049.935
680.808	33890.344
680.937	33880.301
681.065	33853.484
681.193	33719.473
681.321	33565.914
681.449	33653.419
681.577	33466.258
681.705	33446.011
681.833	33377.441
681.962	33337.398
682.090	33246.634
682.218	33218.796
682.346	33112.516
682.474	33001.430
682.602	32954.796
682.730	32884.753
682.858	32822.172
682.987	32790.516
683.115	32710.645
683.243	32634.849
683.371	32671.720
683.499	32556.817
683.627	32514.559
683.755	32395.473
683.883	32388.172
684.012	32331.065
684.140	32236.731
684.268	32205.634
684.396	32215.215
684.524	32108.871
684.652	32141.806
684.780	32016.914
684.908	31864.441
685.037	31929.935
685.165	31870.247
685.293	31828.527
685.421	31826.280
685.549	31728.957
685.677	31647.086
685.805	31572.441
685.933	31484.097
686.062	31498.903
686.190	31367.194
686.318	31326.043
686.446	31283.914
686.574	31197.505
686.702	31223.000
686.830	31086.548
686.958	31131.151
687.087	31061.935
687.215	30967.484
687.343	30879.032
687.471	31018.882
687.599	30760.720
687.727	30692.548
687.855	30637.430
687.983	30514.151
688.112	30550.269
688.240	30520.473
688.368	30427.366
688.496	30282.753
688.624	30213.301
688.752	30294.925
688.880	30137.000
689.008	30050.172
689.137	30060.527
689.265	29906.183
689.393	29877.151
689.521	29801.548
689.649	29839.280
689.777	29664.086
689.905	29707.968
690.033	29510.978
690.162	29416.538
690.290	29461.258
690.418	29299.000
690.546	29358.376
690.674	29221.871
690.802	29156.892
690.930	29058.269
691.058	28976.559
691.187	28849.495
691.315	28841.527
691.443	28750.978
691.571	28695.806
691.699	28568.828
691.827	28513.183
691.955	28482.462
692.083	28404.258
692.212	28370.849
692.340	28281.796
692.468	28205.387
692.596	28112.430
692.724	27985.280
692.852	27991.753
692.980	27865.828
693.108	27869.699
693.237	27689.495
693.365	27567.774
693.493	27547.688
693.621	27503.871
693.749	27351.323
693.877	27317.022
694.005	27189.753
694.133	27065.699
694.262	27055.667
694.390	26895.280
694.518	26817.452
694.646	26806.624
694.774	26700.108
694.902	26615.269
695.030	26543.989
695.158	26418.312
695.287	26320.581
695.415	26314.602
695.543	26185.882
695.671	26092.731
695.799	26110.892
695.927	25916.398
696.055	25864.957
696.183	25668.624
696.312	25868.204
696.440	25694.656
696.568	25619.860
696.696	25392.452
696.824	25250.054
696.952	25221.022
697.080	25141.075
697.208	25066.430
697.337	24999.516
697.465	24882.022
697.593	24757.677
697.721	24813.172
697.849	24634.022
697.977	24613.452
698.105	24566.581
698.233	24453.226
698.362	24342.978
698.490	24384.301
698.618	24177.355
698.746	24137.366
698.874	24114.505
699.002	23997.000
699.130	23925.269
699.258	23828.290
699.387	23718.978
699.515	23713.366
699.643	23654.269
699.771	23595.333
699.899	23404.828
700.027	23327.968
700.155	23299.366
700.283	23166.215
700.412	23124.086
700.540	23042.989
700.668	23052.086
700.796	22869.570
700.924	22769.054
701.052	22733.484
701.180	22666.086
701.308	22536.290
701.437	22469.129
701.565	22454.484
701.693	22345.462
701.821	22473.075
701.949	22210.634
702.077	22122.204
702.205	22137.022
702.333	21981.161
702.462	21887.054
702.590	21927.742
702.718	21716.882
702.846	21812.656
702.974	21537.022
703.102	21531.710
703.230	21436.871
703.358	21295.731
703.487	21205.355
703.615	21160.613
703.743	21066.495
703.871	21024.892
703.999	20899.151
704.127	20787.387
704.255	20735.161
704.383	20659.032
704.512	20672.355
704.640	20577.860
704.768	20553.871
704.896	20372.452
705.024	20281.011
705.152	20192.742
705.280	20144.065
705.408	20018.011
705.537	19889.806
705.665	19819.505
705.793	19771.849
705.921	19707.892
706.049	19598.129
706.177	19574.839
706.305	19435.796
706.433	19374.839
706.562	19317.247
706.690	19227.860
706.818	19134.355
706.946	19024.527
707.074	18961.280
707.202	18888.538
707.330	18759.946
707.458	18719.000
707.587	18625.796
707.715	18558.516
707.843	18515.065
707.971	18469.409
708.099	18343.409
708.227	18242.978
708.355	18180.581
708.483	18099.710
708.612	18031.452
708.740	17901.774
708.868	17904.484
708.996	17900.247
709.124	17786.043
709.252	17728.656
709.380	17628.161
709.508	17572.022
709.637	17527.785
709.765	17454.269
709.893	17410.645
710.021	17245.989
710.149	17336.753
710.277	17151.968
710.405	17061.237
710.533	16967.269
710.662	16925.591
710.790	17029.097
710.918	16823.505
711.046	16798.892
711.174	16717.258
711.302	16722.387
711.430	16604.312
711.558	16566.065
711.687	16474.247
711.815	16380.462
711.943	16326.839
712.071	16292.226
712.199	16253.495
712.327	16251.581
712.455	16079.796
712.583	16226.376
712.712	16024.968
712.840	15991.925
712.968	15906.785
713.096	15829.860
713.224	15760.742
713.352	15660.376
713.480	15607.882
713.608	15563.871
713.737	15461.151
713.865	15477.065
713.993	15363.559
714.121	15356.699
714.249	15250.022
714.377	15165.194
714.505	15131.763
714.633	15137.753
714.762	14996.387
714.890	14955.237
715.018	14890.828
715.146	14883.430
715.274	14772.860
715.402	14743.140
715.530	14664.710
715.658	14661.645
715.787	14629.140
715.915	14600.581
716.043	14473.204
716.171	14550.118
716.299	14317.215
716.427	14360.140
716.555	14230.860
716.683	14202.301
716.812	14136.376
716.940	14034.742
717.068	13961.806
717.196	14103.075
717.324	13960.978
717.452	13842.247
717.580	13876.548
717.708	13722.548
717.837	13686.183
717.965	13618.161
718.093	13541.280
718.221	13521.710
718.349	13542.903
718.477	13389.742
718.605	13447.000
718.733	13311.505
718.862	13307.656
718.990	13171.796
719.118	13173.032
719.246	13070.935
