70_100_wo_pol_at_750.00nm_cut_at_1184.50Y_01.dat
03.07.2023
10:29:46
cut middle at Y: 1184.50
top cursor: 1231 down cursor: 1138 mean of: 93 lines , 2560 datapoints
wavelength(nm)	intensity[arb. units]
585.996	21445.763
586.124	21102.183
586.252	21116.204
586.380	21175.312
586.508	21249.624
586.637	21407.538
586.765	21383.108
586.893	21395.828
587.021	21473.312
587.149	21516.559
587.277	21560.559
587.405	21602.290
587.533	21701.204
587.662	21720.763
587.790	21668.269
587.918	21736.000
588.046	21670.215
588.174	21780.796
588.302	21745.720
588.430	21783.333
588.558	21832.903
588.687	21866.796
588.815	21895.785
588.943	21906.720
589.071	21957.634
589.199	21976.667
589.327	21956.376
589.455	21966.710
589.583	21976.043
589.712	22016.151
589.840	21982.688
589.968	22010.634
590.096	22121.301
590.224	22138.011
590.352	22255.301
590.480	22160.065
590.608	22137.204
590.737	22184.946
590.865	22228.978
590.993	22131.344
591.121	22181.559
591.249	22224.161
591.377	22234.839
591.505	22302.699
591.633	22304.118
591.762	22359.237
591.890	22363.269
592.018	22450.484
592.146	22454.290
592.274	22429.495
592.402	22448.688
592.530	22664.269
592.658	22590.710
592.787	22627.882
592.915	22708.183
593.043	22583.742
593.171	22724.086
593.299	22705.301
593.427	22743.860
593.555	22795.591
593.683	22881.032
593.812	22884.914
593.940	22936.903
594.068	23013.677
594.196	23028.376
594.324	23170.656
594.452	23329.312
594.580	23210.688
594.708	23414.634
594.837	23407.720
594.965	23550.871
595.093	23559.333
595.221	23699.011
595.349	23752.742
595.477	23715.946
595.605	23818.882
595.733	23834.097
595.862	23890.581
595.990	23875.355
596.118	23971.925
596.246	24107.591
596.374	24078.667
596.502	24173.280
596.630	24210.419
596.758	24249.355
596.887	24307.247
597.015	24384.108
597.143	24378.344
597.271	24390.925
597.399	24524.602
597.527	24463.935
597.655	24549.720
597.783	24581.129
597.912	24595.860
598.040	24654.624
598.168	24677.935
598.296	24582.215
598.424	24836.624
598.552	24680.946
598.680	24684.000
598.808	24815.312
598.937	24762.849
599.065	24773.882
599.193	24921.301
599.321	24908.581
599.449	24851.258
599.577	24841.806
599.705	24860.602
599.833	24849.774
599.962	24869.871
600.090	24915.505
600.218	24841.538
600.346	24908.108
600.474	24889.495
600.602	24936.763
600.730	25020.903
600.858	25036.591
600.987	25130.871
601.115	25077.022
601.243	25155.226
601.371	25270.011
601.499	25241.022
601.627	25362.129
601.755	25358.344
601.883	25422.849
602.012	25420.860
602.140	25443.151
602.268	25515.280
602.396	25679.806
602.524	25745.387
602.652	25879.935
602.780	25837.032
602.908	25894.871
603.037	26044.151
603.165	26058.075
603.293	26188.140
603.421	26246.570
603.549	26314.849
603.677	26389.398
603.805	26560.022
603.933	26622.075
604.062	26778.312
604.190	26852.989
604.318	26943.505
604.446	26969.247
604.574	27138.871
604.702	27205.763
604.830	27204.602
604.958	27306.774
605.087	27481.151
605.215	27624.075
605.343	27729.785
605.471	27758.516
605.599	27858.075
605.727	28076.398
605.855	28117.430
605.983	28181.570
606.112	28309.806
606.240	28344.387
606.368	28438.398
606.496	28457.882
606.624	28624.011
606.752	28611.849
606.880	28746.839
607.008	28814.473
607.137	28831.946
607.265	28994.022
607.393	29013.914
607.521	29107.559
607.649	29087.903
607.777	29124.796
607.905	29190.022
608.033	29198.817
608.162	29235.570
608.290	29227.903
608.418	29399.774
608.546	29387.720
608.674	29434.720
608.802	29398.892
608.930	29429.215
609.058	29508.398
609.187	29469.763
609.315	29509.323
609.443	29534.269
609.571	29642.409
609.699	29529.806
609.827	29649.871
609.955	29664.355
610.083	29617.280
610.212	29653.914
610.340	29640.043
610.468	29708.581
610.596	29733.398
610.724	29729.118
610.852	29864.441
610.980	29857.204
611.108	29867.419
611.237	29915.495
611.365	29937.495
611.493	29903.505
611.621	30008.387
611.749	30049.140
611.877	30185.355
612.005	30203.452
612.133	30288.312
612.262	30346.215
612.390	30377.710
612.518	30458.806
612.646	30520.968
612.774	30620.108
612.902	30683.914
613.030	30808.183
613.158	30752.280
613.287	30890.968
613.415	30907.333
613.543	31037.118
613.671	30997.258
613.799	31145.849
613.927	31181.925
614.055	31404.323
614.183	31417.957
614.312	31478.237
614.440	31672.355
614.568	31689.312
614.696	31811.312
614.824	31924.978
614.952	31994.581
615.080	32051.022
615.208	32239.968
615.337	32311.849
615.465	32297.194
615.593	32505.237
615.721	32509.269
615.849	32674.892
615.977	32722.323
616.105	32820.011
616.233	32898.366
616.362	33059.796
616.490	33175.022
616.618	33294.011
616.746	33392.161
616.874	33409.957
617.002	33519.548
617.130	33620.505
617.258	33638.387
617.387	33758.290
617.515	33816.097
617.643	33908.355
617.771	33994.000
617.899	34111.710
618.027	34192.376
618.155	34235.806
618.283	34320.194
618.412	34426.194
618.540	34511.247
618.668	34514.452
618.796	34650.290
618.924	34646.495
619.052	34781.000
619.180	34772.892
619.308	34744.946
619.437	34911.172
619.565	34963.419
619.693	34942.151
619.821	35087.667
619.949	35087.828
620.077	35241.957
620.205	35280.978
620.333	35296.699
620.462	35343.075
620.590	35404.925
620.718	35515.441
620.846	35554.935
620.974	35585.333
621.102	35693.065
621.230	35648.419
621.358	35858.204
621.487	35810.720
621.615	35854.538
621.743	35839.849
621.871	35957.860
621.999	35933.925
622.127	35987.495
622.255	36043.871
622.383	36029.462
622.512	36113.118
622.640	36133.032
622.768	36288.903
622.896	36346.849
623.024	36362.000
623.152	36366.731
623.280	36530.785
623.408	36527.430
623.537	36600.591
623.665	36614.505
623.793	36708.505
623.921	36712.763
624.049	36735.720
624.177	36752.710
624.305	36781.527
624.433	36825.301
624.562	36975.323
624.690	37094.828
624.818	36969.086
624.946	36989.914
625.074	37101.613
625.202	37082.312
625.330	37119.000
625.458	37242.978
625.587	37240.753
625.715	37343.247
625.843	37338.763
625.971	37529.559
626.099	37480.516
626.227	37630.806
626.355	37548.957
626.483	37700.430
626.612	37747.925
626.740	37894.172
626.868	37878.892
626.996	37991.538
627.124	38072.882
627.252	38027.860
627.380	38156.978
627.508	38159.656
627.637	38231.742
627.765	38392.215
627.893	38427.226
628.021	38511.667
628.149	38567.935
628.277	38647.280
628.405	38664.108
628.533	38725.452
628.662	38806.817
628.790	38956.849
628.918	38944.699
629.046	39153.237
629.174	39128.559
629.302	39203.688
629.430	39278.538
629.558	39332.108
629.687	39407.656
629.815	39478.860
629.943	39673.376
630.071	39720.011
630.199	39820.032
630.327	39964.441
630.455	39996.677
630.583	40127.667
630.712	40161.118
630.840	40270.581
630.968	40297.140
631.096	40374.312
631.224	40465.527
631.352	40654.849
631.480	40716.968
631.608	40900.645
631.737	40829.839
631.865	41029.892
631.993	41012.817
632.121	41319.849
632.249	41234.731
632.377	41269.312
632.505	41356.763
632.633	41574.086
632.762	41421.925
632.890	41597.978
633.018	41584.667
633.146	41698.452
633.274	41696.860
633.402	41758.344
633.530	41862.871
633.658	41869.742
633.787	41943.172
633.915	41945.022
634.043	42020.172
634.171	42109.516
634.299	42135.194
634.427	42143.237
634.555	42395.978
634.683	42266.624
634.812	42191.925
634.940	42281.710
635.068	42260.441
635.196	42259.667
635.324	42282.387
635.452	42279.989
635.580	42409.882
635.708	42343.376
635.837	42304.086
635.965	42348.645
636.093	42337.065
636.221	42281.484
636.349	42298.086
636.477	42351.957
636.605	42345.785
636.733	42301.204
636.862	42292.581
636.990	42300.473
637.118	42230.882
637.246	42212.022
637.374	42337.086
637.502	42213.376
637.630	42173.387
637.758	42138.258
637.887	42155.688
638.015	42265.441
638.143	42135.774
638.271	42012.172
638.399	42118.978
638.527	42084.602
638.655	42133.333
638.783	42065.710
638.912	42092.903
639.040	42067.957
639.168	42017.430
639.296	41961.624
639.424	42128.914
639.552	42017.763
639.680	42109.903
639.808	42043.946
639.937	42017.634
640.065	42080.108
640.193	42055.935
640.321	42276.333
640.449	42270.387
640.577	42159.366
640.705	42235.849
640.833	42157.624
640.962	42333.828
641.090	42257.688
641.218	42290.957
641.346	42390.667
641.474	42425.000
641.602	42464.602
641.730	42442.237
641.858	42470.699
641.987	42560.151
642.115	42806.774
642.243	42672.366
642.371	42932.419
642.499	42676.968
642.627	42871.656
642.755	42805.968
642.883	42850.462
643.012	42925.828
643.140	43039.903
643.268	43037.151
643.396	43025.484
643.524	43136.344
643.652	43282.441
643.780	43240.398
643.908	43287.226
644.037	43394.484
644.165	43380.903
644.293	43618.151
644.421	43476.796
644.549	43589.742
644.677	43605.720
644.805	43577.882
644.933	43596.022
645.062	43767.043
645.190	43922.935
645.318	43825.172
645.446	43797.194
645.574	43925.903
645.702	43853.430
645.830	43939.323
645.958	43903.441
646.087	43937.204
646.215	43918.710
646.343	44004.204
646.471	44104.129
646.599	43942.968
646.727	44062.957
646.855	43956.000
646.983	43966.161
647.112	44060.032
647.240	43981.957
647.368	44027.419
647.496	43998.763
647.624	43981.204
647.752	43998.505
647.880	44034.065
648.008	43924.290
648.137	44040.344
648.265	44069.935
648.393	44076.806
648.521	43918.118
648.649	44067.624
648.777	43944.645
648.905	43863.441
649.033	43867.774
649.162	43769.688
649.290	43663.968
649.418	43703.849
649.546	43804.409
649.674	43644.409
649.802	43653.548
649.930	43561.849
650.058	43489.892
650.187	43560.667
650.315	43472.796
650.443	43407.129
650.571	43297.161
650.699	43328.882
650.827	43276.656
650.955	43253.817
651.083	43201.602
651.212	43147.290
651.340	43096.796
651.468	43033.817
651.596	42996.118
651.724	42966.043
651.852	42980.054
651.980	42914.452
652.108	42738.817
652.237	42816.140
652.365	42714.527
652.493	42557.280
652.621	42565.118
652.749	42607.333
652.877	42441.849
653.005	42453.903
653.133	42445.849
653.262	42324.882
653.390	42297.333
653.518	42299.634
653.646	42135.301
653.774	42057.817
653.902	42142.140
654.030	42060.204
654.158	41937.505
654.287	41909.441
654.415	41806.935
654.543	41891.280
654.671	41781.484
654.799	41718.118
654.927	41621.258
655.055	41649.570
655.183	41603.172
655.312	41551.903
655.440	41470.312
655.568	41444.806
655.696	41374.527
655.824	41361.452
655.952	41354.419
656.080	41184.559
656.208	41234.258
656.337	41231.935
656.465	41332.602
656.593	41066.828
656.721	41052.796
656.849	41095.097
656.977	40837.290
657.105	40901.624
657.233	40827.430
657.362	40800.140
657.490	40773.871
657.618	40713.312
657.746	40691.548
657.874	40496.839
658.002	40425.774
658.130	40379.839
658.258	40356.935
658.387	40315.731
658.515	40245.290
658.643	40198.215
658.771	40201.333
658.899	40112.774
659.027	40085.054
659.155	40035.828
659.283	39945.022
659.412	39886.204
659.540	39963.376
659.668	39849.065
659.796	39889.247
659.924	39819.957
660.052	39848.860
660.180	39734.903
660.308	39801.000
660.437	39723.108
660.565	39602.677
660.693	39503.839
660.821	39565.075
660.949	39329.699
661.077	39359.097
661.205	39465.129
661.333	39334.882
661.462	39238.387
661.590	39235.161
661.718	39108.699
661.846	39087.796
661.974	39033.129
662.102	39052.925
662.230	38926.645
662.358	38850.753
662.487	38832.753
662.615	38828.065
662.743	38646.301
662.871	38797.505
662.999	38675.022
663.127	38631.237
663.255	38505.763
663.383	38620.108
663.512	38440.430
663.640	38426.774
663.768	38444.688
663.896	38311.183
664.024	38323.215
664.152	38254.656
664.280	38254.430
664.408	38194.742
664.537	38064.484
664.665	38081.570
664.793	38105.312
664.921	38018.989
665.049	38062.054
665.177	37932.022
665.305	37969.925
665.433	37843.151
665.562	38037.129
665.690	37870.140
665.818	38014.505
665.946	37658.441
666.074	37629.968
666.202	37631.484
666.330	37597.742
666.458	37806.054
666.587	37534.742
666.715	37526.925
666.843	37423.914
666.971	37376.957
667.099	37395.817
667.227	37405.129
667.355	37405.527
667.483	37240.269
667.612	37246.699
667.740	37207.538
667.868	37115.054
667.996	37065.430
668.124	37121.828
668.252	37138.108
668.380	36949.613
668.508	36946.129
668.637	36782.387
668.765	36796.774
668.893	36665.763
669.021	36674.290
669.149	36649.538
669.277	36620.968
669.405	36624.000
669.533	36593.774
669.662	36437.247
669.790	36401.602
669.918	36323.495
670.046	36455.613
670.174	36166.710
670.302	36082.785
670.430	35970.925
670.558	36034.452
670.687	36110.054
670.815	35865.140
670.943	35813.742
671.071	35694.731
671.199	35572.946
671.327	35518.505
671.455	35512.968
671.583	35436.968
671.712	35391.538
671.840	35378.172
671.968	35429.634
672.096	35256.301
672.224	35014.774
672.352	34971.183
672.480	34860.086
672.608	34835.763
672.737	34728.376
672.865	34594.333
672.993	34551.258
673.121	34473.656
673.249	34375.333
673.377	34304.484
673.505	34200.172
673.633	34210.645
673.762	34029.785
673.890	33995.667
674.018	33920.634
674.146	33866.000
674.274	33738.806
674.402	33736.151
674.530	33554.505
674.658	33425.000
674.787	33298.280
674.915	33350.011
675.043	33251.323
675.171	33062.871
675.299	32974.548
675.427	32882.849
675.555	32763.946
675.683	32734.355
675.812	32653.731
675.940	32584.086
676.068	32395.968
676.196	32423.376
676.324	32257.151
676.452	32176.602
676.580	32064.505
676.708	31916.978
676.837	31856.699
676.965	31884.323
677.093	31869.581
677.221	31596.108
677.349	31520.667
677.477	31417.774
677.605	31331.538
677.733	31208.710
677.862	31147.194
677.990	31072.161
678.118	31035.409
678.246	30867.828
678.374	30852.366
678.502	30705.935
678.630	30590.570
678.758	30480.645
678.887	30584.817
679.015	30286.366
679.143	30220.516
679.271	30169.011
679.399	30131.430
679.527	30056.774
679.655	30011.903
679.783	29866.151
679.912	29763.280
680.040	29869.172
680.168	29604.237
680.296	29568.398
680.424	29557.806
680.552	29413.387
680.680	29326.161
680.808	29263.323
680.937	29170.634
681.065	29187.828
681.193	29029.247
681.321	28937.548
681.449	29004.548
681.577	28789.656
681.705	28844.817
681.833	28747.667
681.962	28611.398
682.090	28529.140
682.218	28521.419
682.346	28459.570
682.474	28422.419
682.602	28386.688
682.730	28343.699
682.858	28144.151
682.987	28163.011
683.115	28121.290
683.243	28061.720
683.371	28032.613
683.499	27961.247
683.627	27927.828
683.755	27837.774
683.883	27764.226
684.012	27713.688
684.140	27621.409
684.268	27673.731
684.396	27608.634
684.524	27543.774
684.652	27532.742
684.780	27477.323
684.908	27448.656
685.037	27423.806
685.165	27338.978
685.293	27355.129
685.421	27258.720
685.549	27184.247
685.677	27124.151
685.805	27087.172
685.933	26998.355
686.062	26961.247
686.190	26835.591
686.318	26841.161
686.446	26787.387
686.574	26714.667
686.702	26706.978
686.830	26653.387
686.958	26641.806
687.087	26483.849
687.215	26520.828
687.343	26391.280
687.471	26487.086
687.599	26282.097
687.727	26213.323
687.855	26156.871
687.983	25994.054
688.112	26038.828
688.240	25997.581
688.368	25938.710
688.496	25825.774
688.624	25821.011
688.752	25888.925
688.880	25687.527
689.008	25590.387
689.137	25570.344
689.265	25436.742
689.393	25410.290
689.521	25330.968
689.649	25385.194
689.777	25268.860
689.905	25274.624
690.033	25038.860
690.162	25006.226
690.290	25018.946
690.418	24908.903
690.546	24851.323
690.674	24842.796
690.802	24806.742
690.930	24606.742
691.058	24559.452
691.187	24419.376
691.315	24402.892
691.443	24349.301
691.571	24282.699
691.699	24182.269
691.827	24097.312
691.955	24029.731
692.083	23946.280
692.212	23906.731
692.340	23830.237
692.468	23788.785
692.596	23730.183
692.724	23588.376
692.852	23557.946
692.980	23479.828
693.108	23497.409
693.237	23295.677
693.365	23205.817
693.493	23159.323
693.621	23098.129
693.749	22980.333
693.877	22975.086
694.005	22789.419
694.133	22723.118
694.262	22721.312
694.390	22515.430
694.518	22505.054
694.646	22463.344
694.774	22321.258
694.902	22240.849
695.030	22210.269
695.158	22060.215
695.287	22086.925
695.415	21959.043
695.543	21862.118
695.671	21713.215
695.799	21814.183
695.927	21621.978
696.055	21584.290
696.183	21442.462
696.312	21607.054
696.440	21348.763
696.568	21327.118
696.696	21118.935
696.824	21010.806
696.952	21002.151
697.080	20920.602
697.208	20815.710
697.337	20747.806
697.465	20673.000
697.593	20559.118
697.721	20585.183
697.849	20441.032
697.977	20437.280
698.105	20415.204
698.233	20305.677
698.362	20123.957
698.490	20213.892
698.618	19994.226
698.746	19913.258
698.874	19905.151
699.002	19813.290
699.130	19786.753
699.258	19675.032
699.387	19548.129
699.515	19555.731
699.643	19485.419
699.771	19428.925
699.899	19265.925
700.027	19163.140
700.155	19164.204
700.283	18987.796
700.412	19012.280
700.540	18961.108
700.668	18906.269
700.796	18802.183
700.924	18694.462
701.052	18652.108
701.180	18603.613
701.308	18483.624
701.437	18431.441
701.565	18357.720
701.693	18295.538
701.821	18417.215
701.949	18111.226
702.077	18038.591
702.205	18075.613
702.333	17899.645
702.462	17853.774
702.590	17799.086
702.718	17694.366
702.846	17800.323
702.974	17565.355
703.102	17478.161
703.230	17403.677
703.358	17297.914
703.487	17273.022
703.615	17162.527
703.743	17029.183
703.871	17026.667
703.999	16899.376
704.127	16862.505
704.255	16782.237
704.383	16728.731
704.512	16724.054
704.640	16611.957
704.768	16557.344
704.896	16408.849
705.024	16334.323
705.152	16305.860
705.280	16297.602
705.408	16147.742
705.537	16082.548
705.665	15999.355
705.793	15879.355
705.921	15836.581
706.049	15751.183
706.177	15756.763
706.305	15569.484
706.433	15550.763
706.562	15508.935
706.690	15477.301
706.818	15391.097
706.946	15293.065
707.074	15218.957
707.202	15117.699
707.330	15081.925
707.458	15016.366
707.587	14921.946
707.715	14880.527
707.843	14850.505
707.971	14827.935
708.099	14647.043
708.227	14582.559
708.355	14478.581
708.483	14458.043
708.612	14423.957
708.740	14338.054
708.868	14282.935
708.996	14275.925
709.124	14207.914
709.252	14115.968
709.380	14122.677
709.508	13968.011
709.637	13967.344
709.765	13892.011
709.893	13845.290
710.021	13727.301
710.149	13801.527
710.277	13603.344
710.405	13576.086
710.533	13513.237
710.662	13440.409
710.790	13528.011
710.918	13321.849
711.046	13365.022
711.174	13217.118
711.302	13249.839
711.430	13145.247
711.558	13091.419
711.687	13047.129
711.815	12967.086
711.943	12937.355
712.071	12890.892
712.199	12838.484
712.327	12877.312
712.455	12695.903
712.583	12815.161
712.712	12633.688
712.840	12642.849
712.968	12534.355
713.096	12463.516
713.224	12399.054
713.352	12375.763
713.480	12285.624
713.608	12265.602
713.737	12143.366
713.865	12182.419
713.993	12137.473
714.121	12098.151
714.249	11934.559
714.377	11967.161
714.505	11860.505
714.633	11815.892
714.762	11721.452
714.890	11752.925
715.018	11706.914
715.146	11678.849
715.274	11573.925
715.402	11550.269
715.530	11516.763
715.658	11499.484
715.787	11401.452
715.915	11472.032
716.043	11291.882
716.171	11394.000
716.299	11186.118
716.427	11255.043
716.555	11141.806
716.683	11062.538
716.812	11023.720
716.940	10932.151
717.068	10922.441
717.196	11025.591
717.324	10857.032
717.452	10797.194
717.580	10808.581
717.708	10618.032
717.837	10636.387
717.965	10606.849
718.093	10547.247
718.221	10510.935
718.349	10539.989
718.477	10390.656
718.605	10457.000
718.733	10323.172
718.862	10309.011
718.990	10210.430
719.118	10235.226
719.246	10138.957
