sample11h_at_750.00nm_cut_at_1060.50Y_01.dat
19.06.2023
11:17:07
cut middle at Y: 1060.50
top cursor: 1109 down cursor: 1012 mean of: 97 lines , 2560 datapoints
wavelength(nm)	intensity[arb. units]
585.996	786.412
586.124	768.773
586.252	765.649
586.380	763.144
586.508	774.103
586.637	771.887
586.765	769.505
586.893	771.433
587.021	773.567
587.149	780.216
587.277	780.948
587.405	784.495
587.533	774.546
587.662	786.691
587.790	785.278
587.918	782.629
588.046	779.701
588.174	782.412
588.302	781.536
588.430	785.196
588.558	790.124
588.687	793.680
588.815	799.897
588.943	798.588
589.071	793.309
589.199	796.227
589.327	793.144
589.455	792.887
589.583	797.309
589.712	807.258
589.840	789.907
589.968	804.258
590.096	803.567
590.224	803.670
590.352	809.309
590.480	810.072
590.608	815.237
590.737	807.155
590.865	812.711
590.993	812.237
591.121	807.062
591.249	807.340
591.377	818.670
591.505	814.526
591.633	813.268
591.762	825.701
591.890	827.402
592.018	823.144
592.146	825.155
592.274	826.062
592.402	826.660
592.530	832.082
592.658	827.443
592.787	823.361
592.915	826.381
593.043	825.021
593.171	832.608
593.299	840.371
593.427	834.835
593.555	836.423
593.683	832.227
593.812	832.289
593.940	850.299
594.068	839.938
594.196	847.103
594.324	838.990
594.452	851.897
594.580	852.763
594.708	852.814
594.837	852.299
594.965	857.402
595.093	848.701
595.221	856.979
595.349	855.227
595.477	857.567
595.605	858.412
595.733	870.588
595.862	872.814
595.990	861.660
596.118	865.381
596.246	870.113
596.374	880.701
596.502	874.598
596.630	874.907
596.758	879.629
596.887	878.866
597.015	877.464
597.143	870.897
597.271	875.670
597.399	889.381
597.527	878.289
597.655	888.732
597.783	885.144
597.912	887.340
598.040	891.299
598.168	890.433
598.296	887.670
598.424	887.773
598.552	885.103
598.680	891.340
598.808	892.691
598.937	897.711
599.065	897.629
599.193	899.443
599.321	880.423
599.449	910.021
599.577	899.969
599.705	892.206
599.833	899.918
599.962	891.608
600.090	903.340
600.218	893.701
600.346	905.918
600.474	904.546
600.602	903.340
600.730	901.814
600.858	905.392
600.987	909.536
601.115	900.742
601.243	904.732
601.371	913.763
601.499	913.753
601.627	911.938
601.755	924.021
601.883	930.969
602.012	927.959
602.140	925.557
602.268	931.041
602.396	923.979
602.524	925.082
602.652	937.340
602.780	931.732
602.908	930.753
603.037	937.299
603.165	941.546
603.293	939.041
603.421	952.485
603.549	939.928
603.677	959.515
603.805	950.381
603.933	959.268
604.062	966.423
604.190	964.320
604.318	965.907
604.446	977.216
604.574	970.196
604.702	970.021
604.830	979.031
604.958	980.959
605.087	985.402
605.215	1000.289
605.343	991.474
605.471	1002.268
605.599	984.381
605.727	1005.588
605.855	996.062
605.983	1004.402
606.112	1007.258
606.240	1013.206
606.368	1012.216
606.496	1012.670
606.624	1007.227
606.752	1008.670
606.880	1009.237
607.008	1022.072
607.137	1013.124
607.265	1021.680
607.393	1030.278
607.521	1025.536
607.649	1016.763
607.777	1028.278
607.905	1029.515
608.033	1027.959
608.162	1025.000
608.290	1032.010
608.418	1037.196
608.546	1028.464
608.674	1039.845
608.802	1041.186
608.930	1042.536
609.058	1038.155
609.187	1028.567
609.315	1032.206
609.443	1034.784
609.571	1033.526
609.699	1039.948
609.827	1041.670
609.955	1036.454
610.083	1037.918
610.212	1050.990
610.340	1044.577
610.468	1043.144
610.596	1042.299
610.724	1037.732
610.852	1041.227
610.980	1046.711
611.108	1046.196
611.237	1041.546
611.365	1053.289
611.493	1048.742
611.621	1052.062
611.749	1058.773
611.877	1060.103
612.005	1065.464
612.133	1061.351
612.262	1068.258
612.390	1069.619
612.518	1066.423
612.646	1073.732
612.774	1078.330
612.902	1081.361
613.030	1081.887
613.158	1079.227
613.287	1088.546
613.415	1096.052
613.543	1092.082
613.671	1086.938
613.799	1104.454
613.927	1091.835
614.055	1099.062
614.183	1104.268
614.312	1106.619
614.440	1101.794
614.568	1117.433
614.696	1116.567
614.824	1126.763
614.952	1113.629
615.080	1124.443
615.208	1125.814
615.337	1122.165
615.465	1136.856
615.593	1128.835
615.721	1142.423
615.849	1150.155
615.977	1140.691
616.105	1143.835
616.233	1142.588
616.362	1155.598
616.490	1152.742
616.618	1157.907
616.746	1147.856
616.874	1153.680
617.002	1167.165
617.130	1157.546
617.258	1165.505
617.387	1166.433
617.515	1166.299
617.643	1168.423
617.771	1171.557
617.899	1178.546
618.027	1162.938
618.155	1180.031
618.283	1175.320
618.412	1181.371
618.540	1188.155
618.668	1187.845
618.796	1188.526
618.924	1190.082
619.052	1188.454
619.180	1192.134
619.308	1195.330
619.437	1192.629
619.565	1203.227
619.693	1201.237
619.821	1206.598
619.949	1215.402
620.077	1205.268
620.205	1209.093
620.333	1210.825
620.462	1224.701
620.590	1227.351
620.718	1224.381
620.846	1224.670
620.974	1225.041
621.102	1234.320
621.230	1232.969
621.358	1239.711
621.487	1236.938
621.615	1235.979
621.743	1240.577
621.871	1249.299
621.999	1230.557
622.127	1239.103
622.255	1242.423
622.383	1256.062
622.512	1244.072
622.640	1255.928
622.768	1257.495
622.896	1258.010
623.024	1254.856
623.152	1286.041
623.280	1258.340
623.408	1267.794
623.537	1273.804
623.665	1274.423
623.793	1275.546
623.921	1273.072
624.049	1274.309
624.177	1287.619
624.305	1286.567
624.433	1290.155
624.562	1278.608
624.690	1282.278
624.818	1284.258
624.946	1294.763
625.074	1295.392
625.202	1299.887
625.330	1292.804
625.458	1305.433
625.587	1290.804
625.715	1290.979
625.843	1307.567
625.971	1303.423
626.099	1308.371
626.227	1319.381
626.355	1306.505
626.483	1329.588
626.612	1322.330
626.740	1321.113
626.868	1321.186
626.996	1310.113
627.124	1322.577
627.252	1323.454
627.380	1328.608
627.508	1332.887
627.637	1337.010
627.765	1340.526
627.893	1346.619
628.021	1327.258
628.149	1353.371
628.277	1352.928
628.405	1352.732
628.533	1344.670
628.662	1350.340
628.790	1354.907
628.918	1351.557
629.046	1362.876
629.174	1368.072
629.302	1367.598
629.430	1374.567
629.558	1375.742
629.687	1375.093
629.815	1379.237
629.943	1385.732
630.071	1392.557
630.199	1387.196
630.327	1392.701
630.455	1396.062
630.583	1408.082
630.712	1417.062
630.840	1408.856
630.968	1421.124
631.096	1419.227
631.224	1412.206
631.352	1426.577
631.480	1427.753
631.608	1431.144
631.737	1435.691
631.865	1452.206
631.993	1439.454
632.121	1445.423
632.249	1445.371
632.377	1464.082
632.505	1446.010
632.633	1455.423
632.762	1459.948
632.890	1468.237
633.018	1483.392
633.146	1459.691
633.274	1480.093
633.402	1463.175
633.530	1474.072
633.658	1481.351
633.787	1471.010
633.915	1479.206
634.043	1483.371
634.171	1483.206
634.299	1488.629
634.427	1490.557
634.555	1499.918
634.683	1500.402
634.812	1486.856
634.940	1497.299
635.068	1503.948
635.196	1515.814
635.324	1513.629
635.452	1518.175
635.580	1518.629
635.708	1511.340
635.837	1520.330
635.965	1516.546
636.093	1523.155
636.221	1509.072
636.349	1520.784
636.477	1522.247
636.605	1514.918
636.733	1519.546
636.862	1519.247
636.990	1522.588
637.118	1530.505
637.246	1528.206
637.374	1529.103
637.502	1522.299
637.630	1531.278
637.758	1525.052
637.887	1524.186
638.015	1533.732
638.143	1549.443
638.271	1546.072
638.399	1541.340
638.527	1528.412
638.655	1556.258
638.783	1546.680
638.912	1557.144
639.040	1537.742
639.168	1547.608
639.296	1544.804
639.424	1565.443
639.552	1560.381
639.680	1557.155
639.808	1564.629
639.937	1555.134
640.065	1562.732
640.193	1583.732
640.321	1575.959
640.449	1576.969
640.577	1585.619
640.705	1586.649
640.833	1589.010
640.962	1592.670
641.090	1588.959
641.218	1610.113
641.346	1595.175
641.474	1601.124
641.602	1590.031
641.730	1624.433
641.858	1624.711
641.987	1613.670
642.115	1629.010
642.243	1631.505
642.371	1649.113
642.499	1633.557
642.627	1649.773
642.755	1649.340
642.883	1662.680
643.012	1659.144
643.140	1652.289
643.268	1671.144
643.396	1675.381
643.524	1675.155
643.652	1676.691
643.780	1673.258
643.908	1683.103
644.037	1692.134
644.165	1683.299
644.293	1698.340
644.421	1706.711
644.549	1699.113
644.677	1726.505
644.805	1729.536
644.933	1708.763
645.062	1715.619
645.190	1721.639
645.318	1715.546
645.446	1737.763
645.574	1742.309
645.702	1742.186
645.830	1749.010
645.958	1754.649
646.087	1743.598
646.215	1755.711
646.343	1768.526
646.471	1770.546
646.599	1761.227
646.727	1771.062
646.855	1767.134
646.983	1772.021
647.112	1780.196
647.240	1789.351
647.368	1766.845
647.496	1790.124
647.624	1788.186
647.752	1787.031
647.880	1802.186
648.008	1793.639
648.137	1782.371
648.265	1790.680
648.393	1808.670
648.521	1813.175
648.649	1810.412
648.777	1801.351
648.905	1797.113
649.033	1783.155
649.162	1797.887
649.290	1797.753
649.418	1795.897
649.546	1807.485
649.674	1822.753
649.802	1822.186
649.930	1801.763
650.058	1805.134
650.187	1819.526
650.315	1822.144
650.443	1817.969
650.571	1817.639
650.699	1822.361
650.827	1838.608
650.955	1820.361
651.083	1835.186
651.212	1830.227
651.340	1835.371
651.468	1848.423
651.596	1844.608
651.724	1853.165
651.852	1835.289
651.980	1842.144
652.108	1855.155
652.237	1846.495
652.365	1844.990
652.493	1842.340
652.621	1841.526
652.749	1849.371
652.877	1854.753
653.005	1851.701
653.133	1865.237
653.262	1868.866
653.390	1854.103
653.518	1870.742
653.646	1863.639
653.774	1870.948
653.902	1887.134
654.030	1889.082
654.158	1868.227
654.287	1878.722
654.415	1880.536
654.543	1871.093
654.671	1878.340
654.799	1864.361
654.927	1877.041
655.055	1880.546
655.183	1881.794
655.312	1872.072
655.440	1881.258
655.568	1890.763
655.696	1894.990
655.824	1900.247
655.952	1898.031
656.080	1883.495
656.208	1910.495
656.337	1900.392
656.465	1911.412
656.593	1901.515
656.721	1911.588
656.849	1928.557
656.977	1907.680
657.105	1916.649
657.233	1910.701
657.362	1909.887
657.490	1917.474
657.618	1917.485
657.746	1917.299
657.874	1914.577
658.002	1924.753
658.130	1915.289
658.258	1925.000
658.387	1934.588
658.515	1916.134
658.643	1918.619
658.771	1923.464
658.899	1911.351
659.027	1937.299
659.155	1921.412
659.283	1913.515
659.412	1918.856
659.540	1934.340
659.668	1937.557
659.796	1931.062
659.924	1936.876
660.052	1941.031
660.180	1929.608
660.308	1940.144
660.437	1928.000
660.565	1944.928
660.693	1933.825
660.821	1945.546
660.949	1955.629
661.077	1939.216
661.205	1940.866
661.333	1936.691
661.462	1969.392
661.590	1971.495
661.718	1955.402
661.846	1960.464
661.974	1958.216
662.102	1965.825
662.230	1962.392
662.358	1944.835
662.487	1953.567
662.615	1944.856
662.743	1966.732
662.871	1969.732
662.999	1972.979
663.127	1968.969
663.255	1960.969
663.383	1973.206
663.512	1982.371
663.640	1972.546
663.768	1971.237
663.896	1982.577
664.024	1968.186
664.152	1980.505
664.280	1982.794
664.408	1969.990
664.537	1983.835
664.665	1975.804
664.793	1974.289
664.921	1969.010
665.049	1988.691
665.177	2000.887
665.305	1979.763
665.433	1986.536
665.562	1986.258
665.690	2000.031
665.818	1997.072
665.946	1999.505
666.074	2006.093
666.202	1991.670
666.330	1990.093
666.458	1993.062
666.587	1988.320
666.715	1994.103
666.843	2008.340
666.971	1986.052
667.099	2009.763
667.227	2025.351
667.355	2001.309
667.483	2000.320
667.612	2013.515
667.740	1995.113
667.868	2007.392
667.996	1999.742
668.124	2007.144
668.252	2005.299
668.380	2003.144
668.508	2019.340
668.637	2005.196
668.765	2012.268
668.893	1998.876
669.021	2018.052
669.149	1982.897
669.277	1997.835
669.405	1991.402
669.533	2005.763
669.662	2013.670
669.790	1983.814
669.918	2007.928
670.046	1995.938
670.174	2005.268
670.302	1987.577
670.430	1987.443
670.558	1976.216
670.687	1982.505
670.815	1972.680
670.943	1979.041
671.071	1971.474
671.199	1982.722
671.327	1979.722
671.455	1972.237
671.583	1981.299
671.712	1962.557
671.840	1973.278
671.968	1959.866
672.096	1955.969
672.224	1956.021
672.352	1959.825
672.480	1950.206
672.608	1950.113
672.737	1946.165
672.865	1939.443
672.993	1929.557
673.121	1943.000
673.249	1939.979
673.377	1926.144
673.505	1934.433
673.633	1904.546
673.762	1904.505
673.890	1917.010
674.018	1908.021
674.146	1895.505
674.274	1901.247
674.402	1888.938
674.530	1893.763
674.658	1901.258
674.787	1875.237
674.915	1884.598
675.043	1871.124
675.171	1862.629
675.299	1873.165
675.427	1858.464
675.555	1855.918
675.683	1850.567
675.812	1844.763
675.940	1821.546
676.068	1842.835
676.196	1833.134
676.324	1832.887
676.452	1831.247
676.580	1826.381
676.708	1820.773
676.837	1831.907
676.965	1821.289
677.093	1819.165
677.221	1812.454
677.349	1795.742
677.477	1815.670
677.605	1791.835
677.733	1800.856
677.862	1793.948
677.990	1791.990
678.118	1783.216
678.246	1766.794
678.374	1771.845
678.502	1773.144
678.630	1756.546
678.758	1763.866
678.887	1758.052
679.015	1774.474
679.143	1751.969
679.271	1745.990
679.399	1748.093
679.527	1747.309
679.655	1735.206
679.783	1737.546
679.912	1717.546
680.040	1734.887
680.168	1734.392
680.296	1711.557
680.424	1725.814
680.552	1707.041
680.680	1712.268
680.808	1703.701
680.937	1701.505
681.065	1703.825
681.193	1695.660
681.321	1702.588
681.449	1705.134
681.577	1694.268
681.705	1666.412
681.833	1682.536
681.962	1680.546
682.090	1685.773
682.218	1685.835
682.346	1675.299
682.474	1676.588
682.602	1676.804
682.730	1660.619
682.858	1654.742
682.987	1670.299
683.115	1650.825
683.243	1641.289
683.371	1644.237
683.499	1645.536
683.627	1652.103
683.755	1634.722
683.883	1641.093
684.012	1637.485
684.140	1625.660
684.268	1623.577
684.396	1630.124
684.524	1622.113
684.652	1639.206
684.780	1626.340
684.908	1625.052
685.037	1613.381
685.165	1617.588
685.293	1608.928
685.421	1608.722
685.549	1593.505
685.677	1611.835
685.805	1600.320
685.933	1602.990
686.062	1573.876
686.190	1586.495
686.318	1590.959
686.446	1587.072
686.574	1572.495
686.702	1594.031
686.830	1571.196
686.958	1576.680
687.087	1572.258
687.215	1562.691
687.343	1561.907
687.471	1565.742
687.599	1540.010
687.727	1537.072
687.855	1539.948
687.983	1535.216
688.112	1537.546
688.240	1527.113
688.368	1531.804
688.496	1529.186
688.624	1521.103
688.752	1521.268
688.880	1504.959
689.008	1508.423
689.137	1505.485
689.265	1492.763
689.393	1487.124
689.521	1493.588
689.649	1483.773
689.777	1467.113
689.905	1472.835
690.033	1474.794
690.162	1466.392
690.290	1462.258
690.418	1458.000
690.546	1453.598
690.674	1446.660
690.802	1432.660
690.930	1438.464
691.058	1422.433
691.187	1410.103
691.315	1415.361
691.443	1399.526
691.571	1393.258
691.699	1391.763
691.827	1392.052
691.955	1388.196
692.083	1385.402
692.212	1372.876
692.340	1374.031
692.468	1355.753
692.596	1357.907
692.724	1354.608
692.852	1344.907
692.980	1344.186
693.108	1336.134
693.237	1330.268
693.365	1319.010
693.493	1324.186
693.621	1297.598
693.749	1302.041
693.877	1299.567
694.005	1293.474
694.133	1287.670
694.262	1294.113
694.390	1283.598
694.518	1263.299
694.646	1259.289
694.774	1265.515
694.902	1250.794
695.030	1266.464
695.158	1236.526
695.287	1240.938
695.415	1234.742
695.543	1237.041
695.671	1232.485
695.799	1218.474
695.927	1213.835
696.055	1213.134
696.183	1212.309
696.312	1212.052
696.440	1198.227
696.568	1202.247
696.696	1181.784
696.824	1177.268
696.952	1178.258
697.080	1166.814
697.208	1171.969
697.337	1164.464
697.465	1156.299
697.593	1155.825
697.721	1142.093
697.849	1142.041
697.977	1143.536
698.105	1144.577
698.233	1133.804
698.362	1120.546
698.490	1128.196
698.618	1116.330
698.746	1105.969
698.874	1112.763
699.002	1106.062
699.130	1102.567
699.258	1099.443
699.387	1095.134
699.515	1086.639
699.643	1083.845
699.771	1081.876
699.899	1068.763
700.027	1056.216
700.155	1064.866
700.283	1059.351
700.412	1043.773
700.540	1052.876
700.668	1035.814
700.796	1040.546
700.924	1027.454
701.052	1023.330
701.180	1020.299
701.308	1012.113
701.437	1001.804
701.565	1000.660
701.693	996.474
701.821	1005.351
701.949	998.588
702.077	986.392
702.205	992.155
702.333	986.639
702.462	976.588
702.590	970.928
702.718	968.598
702.846	954.907
702.974	956.464
703.102	951.031
703.230	935.031
703.358	927.412
703.487	929.990
703.615	925.825
703.743	919.165
703.871	905.196
703.999	909.948
704.127	906.196
704.255	901.175
704.383	900.010
704.512	880.619
704.640	882.072
704.768	868.433
704.896	867.134
705.024	857.639
705.152	856.392
705.280	853.804
705.408	856.959
705.537	851.175
705.665	845.567
705.793	839.866
705.921	828.237
706.049	825.835
706.177	826.979
706.305	830.206
706.433	819.897
706.562	806.969
706.690	806.577
706.818	800.742
706.946	796.649
707.074	787.299
707.202	785.691
707.330	780.959
707.458	784.268
707.587	779.732
707.715	771.742
707.843	770.000
707.971	769.567
708.099	760.340
708.227	751.639
708.355	752.649
708.483	749.351
708.612	750.959
708.740	746.124
708.868	733.144
708.996	739.990
709.124	728.206
709.252	728.969
709.380	713.856
709.508	709.639
709.637	717.660
709.765	710.845
709.893	708.639
710.021	707.629
710.149	697.155
710.277	693.969
710.405	698.485
710.533	689.711
710.662	686.443
710.790	693.258
710.918	680.969
711.046	683.268
711.174	679.258
711.302	672.072
711.430	666.474
711.558	671.887
711.687	659.186
711.815	662.103
711.943	658.784
712.071	660.887
712.199	651.691
712.327	649.113
712.455	648.443
712.583	648.711
712.712	651.485
712.840	637.381
712.968	631.598
713.096	636.268
713.224	625.629
713.352	623.557
713.480	627.227
713.608	619.907
713.737	610.000
713.865	612.722
713.993	610.567
714.121	602.155
714.249	616.196
714.377	599.876
714.505	601.505
714.633	592.402
714.762	591.557
714.890	592.629
715.018	594.072
715.146	587.186
715.274	577.742
715.402	581.227
715.530	578.825
715.658	576.866
715.787	570.577
715.915	568.845
716.043	562.392
716.171	564.990
716.299	568.216
716.427	563.619
716.555	559.773
716.683	555.155
716.812	554.897
716.940	556.330
717.068	543.763
717.196	545.443
717.324	541.381
717.452	542.557
717.580	537.773
717.708	528.113
717.837	530.557
717.965	528.691
718.093	527.670
718.221	522.268
718.349	523.134
718.477	517.763
718.605	517.175
718.733	511.000
718.862	510.814
718.990	507.082
719.118	502.433
719.246	503.103
719.374	500.093
719.502	495.629
719.630	489.062
719.758	493.732
719.887	489.763
720.015	488.062
720.143	481.134
720.271	490.392
720.399	480.381
720.527	477.082
720.655	467.093
720.783	474.381
720.912	471.113
721.040	473.557
721.168	467.567
721.296	462.794
721.424	458.196
721.552	453.093
721.680	446.804
721.808	456.175
721.937	448.897
722.065	444.969
722.193	438.474
722.321	450.124
722.449	445.546
722.577	437.186
722.705	431.701
722.833	433.103
722.962	432.258
723.090	425.938
723.218	423.134
723.346	423.784
723.474	421.588
723.602	418.794
723.730	417.433
723.858	415.082
723.987	412.732
724.115	404.175
724.243	404.866
724.371	401.062
724.499	404.577
724.627	405.082
724.755	403.340
724.883	397.113
725.012	400.794
725.140	393.814
725.268	393.062
725.396	384.464
725.524	384.113
725.652	380.113
725.780	385.856
725.908	381.866
726.037	378.062
726.165	373.866
726.293	375.938
726.421	370.103
726.549	367.320
726.677	372.134
726.805	366.052
726.933	363.979
727.062	358.443
727.190	360.093
727.318	357.588
727.446	356.928
727.574	355.918
727.702	351.969
727.830	351.918
727.958	352.711
728.087	351.784
728.215	347.670
728.343	346.299
728.471	343.639
728.599	340.526
728.727	342.835
728.855	342.649
728.983	338.753
729.112	335.216
729.240	338.742
729.368	332.134
729.496	332.392
729.624	331.093
729.752	328.247
729.880	329.423
730.008	325.515
730.137	322.299
730.265	320.845
730.393	317.103
730.521	318.082
730.649	315.237
730.777	315.546
730.905	312.979
731.033	313.412
731.162	310.845
731.290	308.412
731.418	312.371
731.546	309.814
731.674	307.289
731.802	304.454
731.930	305.381
732.058	305.918
732.187	301.691
732.315	298.794
732.443	305.557
732.571	299.938
732.699	298.948
732.827	295.557
732.955	295.041
733.083	293.629
733.212	292.412
733.340	290.196
733.468	290.742
733.596	293.155
733.724	289.072
733.852	289.773
733.980	285.670
734.108	283.588
734.237	283.866
734.365	280.876
734.493	286.598
734.621	283.907
734.749	279.464
734.877	278.979
735.005	277.443
735.133	280.196
735.262	276.113
735.390	271.031
735.518	269.155
735.646	273.866
735.774	270.103
735.902	274.454
736.030	269.742
736.158	268.907
736.287	265.567
736.415	270.330
736.543	266.454
736.671	261.629
736.799	260.639
736.927	260.701
737.055	258.722
737.183	259.866
737.312	257.876
737.440	256.031
737.568	260.938
737.696	258.825
737.824	258.412
737.952	255.907
738.080	250.866
738.208	252.753
738.337	248.216
