sample12u_at_750.00nm_cut_at_1060.50Y_01.dat
19.06.2023
11:18:25
cut middle at Y: 1060.50
top cursor: 1109 down cursor: 1012 mean of: 97 lines , 2560 datapoints
wavelength(nm)	intensity[arb. units]
585.996	1879.825
586.124	1832.588
586.252	1813.474
586.380	1816.794
586.508	1814.495
586.637	1825.959
586.765	1825.485
586.893	1823.680
587.021	1837.268
587.149	1831.866
587.277	1825.557
587.405	1858.361
587.533	1834.041
587.662	1848.392
587.790	1848.959
587.918	1842.124
588.046	1841.897
588.174	1843.948
588.302	1846.619
588.430	1846.155
588.558	1855.722
588.687	1856.423
588.815	1873.588
588.943	1878.835
589.071	1854.629
589.199	1865.629
589.327	1864.649
589.455	1845.495
589.583	1863.711
589.712	1872.505
589.840	1871.794
589.968	1871.660
590.096	1858.608
590.224	1872.814
590.352	1875.155
590.480	1877.144
590.608	1882.629
590.737	1862.536
590.865	1884.515
590.993	1874.897
591.121	1877.247
591.249	1891.423
591.377	1881.093
591.505	1884.371
591.633	1880.041
591.762	1892.732
591.890	1899.186
592.018	1886.041
592.146	1894.680
592.274	1899.144
592.402	1897.361
592.530	1893.876
592.658	1899.227
592.787	1902.165
592.915	1912.711
593.043	1904.134
593.171	1897.742
593.299	1917.948
593.427	1913.000
593.555	1926.825
593.683	1915.196
593.812	1910.113
593.940	1923.474
594.068	1918.052
594.196	1943.021
594.324	1932.021
594.452	1957.918
594.580	1950.753
594.708	1963.835
594.837	1953.021
594.965	1964.763
595.093	1971.237
595.221	1969.660
595.349	1969.639
595.477	1974.763
595.605	1979.000
595.733	2019.649
595.862	1980.278
595.990	1981.701
596.118	2001.629
596.246	2002.289
596.374	2003.711
596.502	2007.299
596.630	2008.402
596.758	2022.722
596.887	2017.392
597.015	2012.474
597.143	1995.041
597.271	2021.144
597.399	2010.041
597.527	2017.598
597.655	2013.299
597.783	2022.351
597.912	2028.887
598.040	2030.443
598.168	2028.845
598.296	2018.320
598.424	2010.567
598.552	2027.423
598.680	2010.577
598.808	2015.969
598.937	2033.979
599.065	2025.856
599.193	2011.835
599.321	1998.557
599.449	2020.474
599.577	2012.474
599.705	2026.515
599.833	2020.794
599.962	2024.289
600.090	2023.701
600.218	2028.278
600.346	2037.876
600.474	2027.103
600.602	2038.299
600.730	2029.866
600.858	2042.948
600.987	2029.959
601.115	2030.608
601.243	2022.649
601.371	2046.320
601.499	2053.268
601.627	2046.928
601.755	2054.340
601.883	2046.124
602.012	2073.938
602.140	2061.835
602.268	2073.701
602.396	2080.825
602.524	2074.175
602.652	2081.423
602.780	2095.258
602.908	2091.082
603.037	2106.804
603.165	2103.515
603.293	2122.320
603.421	2110.227
603.549	2119.289
603.677	2134.330
603.805	2119.454
603.933	2144.155
604.062	2142.557
604.190	2163.206
604.318	2155.608
604.446	2184.639
604.574	2168.381
604.702	2173.412
604.830	2187.474
604.958	2201.701
605.087	2226.052
605.215	2211.454
605.343	2216.670
605.471	2224.794
605.599	2241.247
605.727	2226.052
605.855	2240.052
605.983	2220.155
606.112	2253.021
606.240	2254.196
606.368	2256.495
606.496	2282.216
606.624	2258.588
606.752	2257.567
606.880	2281.990
607.008	2303.876
607.137	2296.258
607.265	2266.732
607.393	2287.485
607.521	2304.340
607.649	2268.536
607.777	2278.330
607.905	2280.381
608.033	2290.845
608.162	2267.598
608.290	2291.856
608.418	2298.464
608.546	2289.144
608.674	2306.711
608.802	2287.938
608.930	2299.959
609.058	2287.454
609.187	2287.608
609.315	2299.144
609.443	2297.979
609.571	2291.876
609.699	2273.072
609.827	2280.887
609.955	2290.598
610.083	2270.454
610.212	2268.536
610.340	2295.804
610.468	2312.907
610.596	2286.784
610.724	2277.258
610.852	2297.711
610.980	2302.443
611.108	2303.175
611.237	2295.505
611.365	2301.742
611.493	2301.577
611.621	2307.536
611.749	2325.567
611.877	2326.608
612.005	2320.557
612.133	2314.340
612.262	2322.124
612.390	2334.124
612.518	2338.454
612.646	2359.711
612.774	2344.918
612.902	2349.763
613.030	2352.134
613.158	2379.773
613.287	2367.784
613.415	2356.443
613.543	2362.031
613.671	2377.330
613.799	2375.546
613.927	2405.206
614.055	2394.577
614.183	2446.278
614.312	2385.732
614.440	2429.093
614.568	2404.227
614.696	2411.247
614.824	2478.938
614.952	2446.155
615.080	2436.660
615.208	2444.031
615.337	2444.186
615.465	2455.423
615.593	2466.165
615.721	2466.598
615.849	2468.691
615.977	2472.268
616.105	2497.835
616.233	2464.010
616.362	2499.340
616.490	2481.237
616.618	2494.330
616.746	2510.773
616.874	2525.598
617.002	2511.423
617.130	2515.412
617.258	2548.103
617.387	2521.474
617.515	2484.763
617.643	2500.412
617.771	2509.742
617.899	2531.505
618.027	2503.052
618.155	2546.433
618.283	2515.052
618.412	2529.938
618.540	2547.577
618.668	2549.433
618.796	2518.897
618.924	2576.711
619.052	2533.598
619.180	2531.082
619.308	2536.309
619.437	2533.742
619.565	2555.433
619.693	2524.423
619.821	2549.299
619.949	2538.258
620.077	2573.784
620.205	2576.928
620.333	2572.031
620.462	2567.598
620.590	2593.608
620.718	2573.433
620.846	2594.835
620.974	2613.206
621.102	2585.866
621.230	2584.557
621.358	2640.608
621.487	2572.031
621.615	2604.392
621.743	2593.237
621.871	2591.309
621.999	2615.649
622.127	2612.361
622.255	2592.330
622.383	2603.000
622.512	2609.216
622.640	2668.897
622.768	2594.845
622.896	2606.495
623.024	2587.649
623.152	2661.196
623.280	2626.093
623.408	2599.258
623.537	2618.093
623.665	2607.979
623.793	2640.577
623.921	2616.175
624.049	2623.330
624.177	2626.649
624.305	2629.278
624.433	2628.196
624.562	2622.247
624.690	2623.196
624.818	2649.206
624.946	2719.144
625.074	2644.722
625.202	2620.938
625.330	2609.979
625.458	2651.041
625.587	2632.340
625.715	2657.289
625.843	2706.010
625.971	2651.536
626.099	2649.794
626.227	2642.577
626.355	2632.979
626.483	2695.340
626.612	2656.763
626.740	2646.186
626.868	2680.825
626.996	2643.330
627.124	2659.680
627.252	2641.052
627.380	2677.309
627.508	2649.433
627.637	2652.082
627.765	2680.124
627.893	2672.206
628.021	2656.031
628.149	2682.515
628.277	2685.103
628.405	2722.474
628.533	2659.309
628.662	2703.619
628.790	2689.052
628.918	2690.608
629.046	2701.093
629.174	2702.021
629.302	2761.227
629.430	2688.495
629.558	2723.010
629.687	2735.299
629.815	2715.381
629.943	2739.691
630.071	2747.227
630.199	2742.546
630.327	2750.701
630.455	2731.330
630.583	2784.371
630.712	2769.371
630.840	2754.835
630.968	2782.474
631.096	2766.268
631.224	2762.680
631.352	2764.567
631.480	2788.165
631.608	2803.814
631.737	2854.515
631.865	2938.835
631.993	2791.392
632.121	2874.588
632.249	2858.577
632.377	2838.309
632.505	2844.340
632.633	2785.381
632.762	2847.010
632.890	2886.247
633.018	2801.763
633.146	2808.763
633.274	2837.959
633.402	2839.124
633.530	2806.948
633.658	2901.093
633.787	2803.825
633.915	2865.866
634.043	2821.072
634.171	2809.227
634.299	2853.619
634.427	2895.031
634.555	2899.134
634.683	2849.237
634.812	2832.412
634.940	2854.825
635.068	2803.608
635.196	2841.866
635.324	2845.258
635.452	2883.959
635.580	2841.938
635.708	2813.928
635.837	2879.588
635.965	2830.454
636.093	2823.505
636.221	2829.443
636.349	2863.711
636.477	2782.423
636.605	2958.340
636.733	2792.165
636.862	2782.938
636.990	2824.268
637.118	2861.103
637.246	2824.021
637.374	2841.928
637.502	2807.093
637.630	2787.722
637.758	2822.340
637.887	2786.825
638.015	2824.959
638.143	2804.928
638.271	2796.649
638.399	2804.371
638.527	2795.010
638.655	2776.763
638.783	2891.165
638.912	2836.474
639.040	2814.433
639.168	2827.309
639.296	2799.010
639.424	2931.206
639.552	2798.691
639.680	2805.639
639.808	2828.876
639.937	2792.784
640.065	2793.433
640.193	2864.959
640.321	2800.309
640.449	2876.742
640.577	2865.052
640.705	2803.619
640.833	2901.474
640.962	2841.165
641.090	2811.021
641.218	2794.031
641.346	2834.309
641.474	2828.186
641.602	2818.031
641.730	2818.299
641.858	2824.907
641.987	2868.299
642.115	2857.268
642.243	2863.134
642.371	2885.268
642.499	2871.072
642.627	2866.546
642.755	2893.845
642.883	2920.649
643.012	2858.258
643.140	2859.423
643.268	2872.804
643.396	2872.948
643.524	2986.175
643.652	2907.330
643.780	2888.402
643.908	2880.216
644.037	2989.454
644.165	2892.268
644.293	2957.175
644.421	2872.536
644.549	2967.948
644.677	2941.887
644.805	2961.649
644.933	2904.423
645.062	2912.113
645.190	2987.186
645.318	3022.969
645.446	2931.567
645.574	2945.340
645.702	2942.361
645.830	3058.237
645.958	2940.093
646.087	3056.505
646.215	2928.773
646.343	3078.732
646.471	3045.216
646.599	2991.701
646.727	2946.577
646.855	2950.918
646.983	2979.021
647.112	2971.113
647.240	3093.536
647.368	2976.021
647.496	3000.959
647.624	2940.464
647.752	2943.835
647.880	2952.928
648.008	2958.155
648.137	2967.402
648.265	2926.897
648.393	2979.196
648.521	2953.619
648.649	3006.835
648.777	2988.278
648.905	2953.258
649.033	2994.093
649.162	2977.402
649.290	2947.670
649.418	2975.670
649.546	3029.289
649.674	2983.268
649.802	2975.351
649.930	3068.124
650.058	2901.062
650.187	2976.144
650.315	2914.784
650.443	2987.165
650.571	2944.784
650.699	2933.918
650.827	2924.052
650.955	2958.237
651.083	2979.103
651.212	2978.670
651.340	3030.701
651.468	2965.619
651.596	2968.804
651.724	2958.948
651.852	2945.031
651.980	2923.753
652.108	3009.113
652.237	2960.134
652.365	3000.381
652.493	2937.237
652.621	2939.897
652.749	3006.361
652.877	2937.670
653.005	2986.289
653.133	2916.577
653.262	2967.536
653.390	2917.309
653.518	3089.278
653.646	2944.041
653.774	3073.866
653.902	2994.485
654.030	2934.175
654.158	2931.722
654.287	2939.876
654.415	2966.990
654.543	2940.866
654.671	2981.876
654.799	2934.433
654.927	2905.412
655.055	2913.134
655.183	2943.598
655.312	2928.887
655.440	2939.340
655.568	2913.278
655.696	3018.691
655.824	3022.227
655.952	2947.165
656.080	2913.268
656.208	3047.804
656.337	2957.557
656.465	3015.227
656.593	3005.515
656.721	2984.464
656.849	3035.701
656.977	2922.629
657.105	2935.701
657.233	2929.206
657.362	2961.082
657.490	2943.773
657.618	2953.031
657.746	2946.381
657.874	2942.113
658.002	2891.907
658.130	2933.330
658.258	2936.845
658.387	2912.371
658.515	2916.928
658.643	2950.309
658.771	2950.897
658.899	2919.454
659.027	2921.907
659.155	2922.990
659.283	3039.990
659.412	2928.608
659.540	3002.505
659.668	2925.237
659.796	2960.835
659.924	2971.381
660.052	2948.062
660.180	2927.175
660.308	2948.247
660.437	2942.309
660.565	2917.320
660.693	2908.165
660.821	2967.320
660.949	2911.691
661.077	2925.825
661.205	2969.443
661.333	2900.804
661.462	2970.186
661.590	2981.557
661.718	3060.371
661.846	3008.237
661.974	3043.619
662.102	2959.485
662.230	2982.289
662.358	2935.557
662.487	2956.588
662.615	2924.443
662.743	2950.268
662.871	2933.959
662.999	2910.495
663.127	2926.103
663.255	3021.763
663.383	3060.062
663.512	2930.474
663.640	2969.175
663.768	2962.134
663.896	2929.969
664.024	3000.557
664.152	2945.072
664.280	3004.361
664.408	2977.041
664.537	2984.340
664.665	2928.454
664.793	2921.825
664.921	2933.330
665.049	2980.454
665.177	2955.351
665.305	2978.639
665.433	2962.320
665.562	2996.938
665.690	2977.887
665.818	3156.454
665.946	2967.258
666.074	2975.639
666.202	2960.814
666.330	3014.969
666.458	2978.392
666.587	2929.134
666.715	2978.381
666.843	2952.433
666.971	2960.505
667.099	2991.835
667.227	3020.629
667.355	3020.412
667.483	2965.113
667.612	2990.464
667.740	3021.082
667.868	3044.010
667.996	2982.412
668.124	2984.433
668.252	3018.165
668.380	2980.825
668.508	2994.041
668.637	3003.856
668.765	2993.124
668.893	3044.299
669.021	2955.546
669.149	3060.835
669.277	3013.629
669.405	3022.887
669.533	3019.649
669.662	3153.351
669.790	3001.515
669.918	3058.155
670.046	3048.845
670.174	3057.876
670.302	3022.072
670.430	2989.619
670.558	3060.794
670.687	3027.546
670.815	3088.763
670.943	2974.763
671.071	2953.082
671.199	3000.495
671.327	2937.557
671.455	2994.165
671.583	2970.320
671.712	3081.062
671.840	2979.629
671.968	2999.381
672.096	3019.990
672.224	2932.206
672.352	3064.155
672.480	2936.052
672.608	2947.433
672.737	2924.103
672.865	3022.753
672.993	2933.196
673.121	2902.165
673.249	2931.144
673.377	2863.340
673.505	2893.289
673.633	2926.495
673.762	2864.113
673.890	2884.794
674.018	3033.278
674.146	2893.660
674.274	2884.876
674.402	3039.423
674.530	2857.309
674.658	2882.969
674.787	2860.639
674.915	2900.835
675.043	2889.041
675.171	2901.093
675.299	2845.887
675.427	2853.392
675.555	2837.124
675.683	2839.639
675.812	2863.206
675.940	2822.289
676.068	2845.928
676.196	2808.247
676.324	2825.443
676.452	2827.794
676.580	2790.897
676.708	2827.969
676.837	2859.247
676.965	2810.216
677.093	2852.907
677.221	2796.485
677.349	2818.608
677.477	2872.392
677.605	2796.835
677.733	2826.732
677.862	2782.742
677.990	2758.021
678.118	2806.794
678.246	2787.423
678.374	2791.649
678.502	2751.845
678.630	2722.804
678.758	2726.402
678.887	2818.742
679.015	2736.237
679.143	2729.381
679.271	2727.423
679.399	2761.619
679.527	2748.227
679.655	2761.536
679.783	2735.454
679.912	2720.330
680.040	2773.639
680.168	2751.474
680.296	2734.959
680.424	2706.227
680.552	2729.113
680.680	2754.557
680.808	2701.784
680.937	2685.897
681.065	2722.299
681.193	2713.515
681.321	2711.711
681.449	2696.247
681.577	2683.845
681.705	2702.588
681.833	2704.907
681.962	2684.567
682.090	2807.577
682.218	2690.969
682.346	2697.237
682.474	2695.289
682.602	2679.196
682.730	2701.619
682.858	2680.608
682.987	2698.619
683.115	2681.887
683.243	2690.423
683.371	2664.072
683.499	2672.031
683.627	2707.938
683.755	2711.299
683.883	2778.216
684.012	2678.546
684.140	2673.887
684.268	2662.216
684.396	2693.052
684.524	2652.588
684.652	2725.969
684.780	2705.320
684.908	2717.990
685.037	2668.464
685.165	2642.969
685.293	2705.979
685.421	2716.340
685.549	2655.526
685.677	2669.474
685.805	2748.907
685.933	2696.722
686.062	2664.856
686.190	2643.464
686.318	2708.598
686.446	2657.856
686.574	2630.144
686.702	2744.464
686.830	2648.897
686.958	2672.732
687.087	2654.474
687.215	2665.495
687.343	2647.629
687.471	2685.340
687.599	2649.000
687.727	2712.165
687.855	2639.454
687.983	2651.649
688.112	2686.845
688.240	2614.897
688.368	2621.175
688.496	2649.278
688.624	2655.866
688.752	2629.959
688.880	2605.526
689.008	2618.000
689.137	2605.918
689.265	2592.227
689.393	2595.206
689.521	2591.443
689.649	2600.825
689.777	2586.330
689.905	2588.454
690.033	2575.000
690.162	2564.041
690.290	2576.804
690.418	2555.237
690.546	2559.928
690.674	2602.062
690.802	2555.608
690.930	2543.381
691.058	2546.505
691.187	2533.526
691.315	2540.474
691.443	2547.381
691.571	2513.144
691.699	2506.052
691.827	2521.474
691.955	2495.072
692.083	2501.124
692.212	2504.990
692.340	2489.361
692.468	2483.412
692.596	2491.907
692.724	2498.969
692.852	2468.134
692.980	2462.959
693.108	2453.804
693.237	2448.216
693.365	2437.773
693.493	2431.454
693.621	2426.320
693.749	2438.732
693.877	2412.567
694.005	2410.515
694.133	2430.866
694.262	2394.505
694.390	2399.443
694.518	2394.247
694.646	2376.629
694.774	2379.289
694.902	2375.536
695.030	2398.361
695.158	2363.639
695.287	2370.804
695.415	2351.907
695.543	2342.515
695.671	2329.093
695.799	2330.165
695.927	2329.021
696.055	2323.773
696.183	2345.196
696.312	2330.773
696.440	2305.979
696.568	2312.258
696.696	2275.381
696.824	2288.990
696.952	2293.247
697.080	2272.876
697.208	2293.588
697.337	2260.567
697.465	2262.454
697.593	2267.381
697.721	2261.464
697.849	2248.536
697.977	2256.907
698.105	2253.990
698.233	2248.340
698.362	2232.082
698.490	2233.763
698.618	2234.082
698.746	2210.103
698.874	2229.505
699.002	2218.876
699.130	2218.381
699.258	2195.186
699.387	2184.155
699.515	2187.000
699.643	2189.763
699.771	2181.299
699.899	2171.103
700.027	2163.515
700.155	2170.763
700.283	2148.340
700.412	2127.753
700.540	2140.907
700.668	2124.495
700.796	2118.443
700.924	2104.402
701.052	2105.320
701.180	2102.423
701.308	2106.227
701.437	2081.804
701.565	2088.753
701.693	2085.474
701.821	2079.742
701.949	2052.649
702.077	2041.433
702.205	2053.320
702.333	2041.144
702.462	2035.814
702.590	2034.629
702.718	2031.670
702.846	2022.835
702.974	2012.216
703.102	2004.526
703.230	1999.113
703.358	1969.474
703.487	1970.897
703.615	1978.784
703.743	1931.990
703.871	1941.196
703.999	1935.433
704.127	1932.701
704.255	1930.309
704.383	1916.979
704.512	1906.887
704.640	1904.835
704.768	1875.474
704.896	1883.526
705.024	1872.175
705.152	1853.567
705.280	1872.907
705.408	1841.299
705.537	1851.763
705.665	1843.412
705.793	1841.340
705.921	1835.845
706.049	1827.113
706.177	1801.670
706.305	1809.392
706.433	1798.990
706.562	1794.000
706.690	1778.505
706.818	1773.402
706.946	1772.309
707.074	1763.351
707.202	1744.804
707.330	1739.763
707.458	1738.175
707.587	1736.938
707.715	1729.536
707.843	1706.938
707.971	1729.165
708.099	1695.454
708.227	1695.010
708.355	1693.794
708.483	1693.010
708.612	1689.825
708.740	1682.392
708.868	1675.186
708.996	1656.794
709.124	1654.773
709.252	1647.660
709.380	1635.021
709.508	1639.165
709.637	1626.918
709.765	1622.990
709.893	1604.835
710.021	1617.186
710.149	1613.320
710.277	1608.680
710.405	1604.268
710.533	1582.258
710.662	1581.629
710.790	1591.361
710.918	1564.536
711.046	1571.268
711.174	1577.969
711.302	1552.062
711.430	1556.485
711.558	1561.588
711.687	1546.495
711.815	1550.021
711.943	1539.216
712.071	1544.247
712.199	1533.639
712.327	1512.144
712.455	1527.670
712.583	1524.309
712.712	1512.763
712.840	1510.928
712.968	1493.247
713.096	1498.165
713.224	1492.691
713.352	1489.134
713.480	1464.660
713.608	1462.082
713.737	1470.134
713.865	1466.773
713.993	1458.753
714.121	1456.237
714.249	1440.918
714.377	1451.443
714.505	1459.515
714.633	1436.309
714.762	1427.814
714.890	1436.113
715.018	1416.526
715.146	1419.371
715.274	1403.165
715.402	1407.041
715.530	1408.021
715.658	1390.021
715.787	1390.825
715.915	1391.969
716.043	1388.639
716.171	1384.052
716.299	1379.474
716.427	1375.196
716.555	1359.134
716.683	1360.124
716.812	1360.979
716.940	1356.794
717.068	1340.443
717.196	1348.443
717.324	1340.186
717.452	1332.629
717.580	1327.773
717.708	1327.794
717.837	1310.567
717.965	1309.588
718.093	1304.701
718.221	1291.227
718.349	1294.959
718.477	1288.216
718.605	1265.103
718.733	1275.866
718.862	1264.835
718.990	1264.309
719.118	1264.887
719.246	1255.289
719.374	1258.742
719.502	1260.041
719.630	1241.443
719.758	1241.258
719.887	1238.629
720.015	1229.485
720.143	1226.588
720.271	1214.443
720.399	1209.825
720.527	1212.144
720.655	1201.701
720.783	1188.711
720.912	1185.804
721.040	1191.505
721.168	1194.557
721.296	1171.299
721.424	1163.835
721.552	1161.155
721.680	1159.423
721.808	1150.928
721.937	1144.041
722.065	1137.216
722.193	1129.742
722.321	1138.443
722.449	1131.268
722.577	1120.206
722.705	1120.515
722.833	1102.742
722.962	1098.526
723.090	1093.536
723.218	1074.567
723.346	1075.237
723.474	1080.979
723.602	1065.948
723.730	1063.103
723.858	1055.134
723.987	1063.742
724.115	1041.443
724.243	1050.691
724.371	1050.340
724.499	1033.278
724.627	1037.093
724.755	1028.113
724.883	1022.979
725.012	1008.701
725.140	1013.093
725.268	1011.649
725.396	995.814
725.524	987.557
725.652	989.794
725.780	987.691
725.908	975.959
726.037	982.495
726.165	968.619
726.293	967.959
726.421	954.680
726.549	963.742
726.677	959.639
726.805	955.897
726.933	951.320
727.062	931.753
727.190	920.082
727.318	931.814
727.446	921.155
727.574	929.010
727.702	913.608
727.830	913.742
727.958	915.423
728.087	901.732
728.215	894.876
728.343	894.619
728.471	893.433
728.599	882.794
728.727	880.103
728.855	888.918
728.983	865.175
729.112	870.526
729.240	860.794
729.368	859.186
729.496	859.990
729.624	848.856
729.752	845.206
729.880	840.536
730.008	842.990
730.137	834.082
730.265	833.835
730.393	826.340
730.521	831.577
730.649	811.010
730.777	823.433
730.905	810.619
731.033	805.866
731.162	810.887
731.290	801.340
731.418	804.412
731.546	795.670
731.674	781.835
731.802	793.629
731.930	792.629
732.058	778.289
732.187	771.948
732.315	777.938
732.443	779.979
732.571	767.948
732.699	767.907
732.827	768.237
732.955	758.753
733.083	755.371
733.212	756.959
733.340	758.536
733.468	751.381
733.596	749.763
733.724	737.608
733.852	729.845
733.980	732.351
734.108	734.577
734.237	734.072
734.365	716.866
734.493	718.454
734.621	726.082
734.749	725.557
734.877	713.340
735.005	719.856
735.133	710.619
735.262	713.515
735.390	703.010
735.518	699.897
735.646	692.959
